\wavsamp version 5.0 (Thu May  9 10:19:35 PDT 2002)
\processing time 16:41:38 PST 07/25/2002
\character channelID = 3
| order |x_center |y_center |   wavelength   |  angle   |   x0    |   y0    |   x1    |   y1    |   x2    |   y2    |   x3    |   y3    |
| int   |  real   |  real   |    real        |   real   |  real   |  real   |  real   |  real   |  real   |  real   |  real   |  real   |
      20   8.05075   0.99702         18.95570   0.000000  11.06228   0.46929   5.06228   0.46929   5.03929   1.52476  11.03929   1.52476
      20   8.02788   2.05294         18.97150   0.000000  11.03929   1.52476   5.03929   1.52476   5.01653   2.58111  11.01653   2.58111
      20   8.00523   3.10973         18.98732   0.000000  11.01653   2.58111   5.01653   2.58111   4.99399   3.63835  10.99399   3.63835
      20   7.98280   4.16740         19.00315   0.000000  10.99399   3.63835   4.99399   3.63835   4.97167   4.69646  10.97167   4.69646
      20   7.96058   5.22596         19.01899   0.000000  10.97167   4.69646   4.97167   4.69646   4.94955   5.75546  10.94955   5.75546
      20   7.93857   6.28540         19.03485   0.000000  10.94955   5.75546   4.94955   5.75546   4.92763   6.81534  10.92763   6.81534
      20   7.91675   7.34572         19.05072   0.000000  10.92763   6.81534   4.92763   6.81534   4.90591   7.87610  10.90591   7.87610
      20   7.89512   8.40692         19.06660   0.000000  10.90591   7.87610   4.90591   7.87610   4.88438   8.93775  10.88438   8.93775
      20   7.87368   9.46901         19.08249   0.000000  10.88438   8.93775   4.88438   8.93775   4.86303  10.00028  10.86303  10.00028
      20   7.85241  10.53199         19.09840   0.000000  10.86303  10.00028   4.86303  10.00028   4.84185  11.06370  10.84185  11.06370
      20   7.83132  11.59585         19.11432   0.000000  10.84185  11.06370   4.84185  11.06370   4.82084  12.12800  10.82084  12.12800
      20   7.81039  12.66060         19.13026   0.000000  10.82084  12.12800   4.82084  12.12800   4.79999  13.19320  10.79999  13.19320
      20   7.78962  13.72624         19.14621   0.000000  10.79999  13.19320   4.79999  13.19320   4.77930  14.25928  10.77930  14.25928
      20   7.76900  14.79276         19.16217   0.000000  10.77930  14.25928   4.77930  14.25928   4.75875  15.32624  10.75875  15.32624
      20   7.74853  15.86017         19.17814   0.000000  10.75875  15.32624   4.75875  15.32624   4.73835  16.39410  10.73835  16.39410
      20   7.72819  16.92848         19.19413   0.000000  10.73835  16.39410   4.73835  16.39410   4.71808  17.46285  10.71808  17.46285
      20   7.70799  17.99767         19.21014   0.000000  10.71808  17.46285   4.71808  17.46285   4.69793  18.53249  10.69793  18.53249
      20   7.68790  19.06776         19.22615   0.000000  10.69793  18.53249   4.69793  18.53249   4.67791  19.60302  10.67791  19.60302
      20   7.66794  20.13874         19.24218   0.000000  10.67791  19.60302   4.67791  19.60302   4.65800  20.67445  10.65800  20.67445
      20   7.64808  21.21061         19.25822   0.000000  10.65800  20.67445   4.65800  20.67445   4.63820  21.74676  10.63820  21.74676
      20   7.62833  22.28337         19.27428   0.000000  10.63820  21.74676   4.63820  21.74676   4.61849  22.81998  10.61849  22.81998
      20   7.60867  23.35703         19.29034   0.000000  10.61849  22.81998   4.61849  22.81998   4.59888  23.89408  10.59888  23.89408
      20   7.58911  24.43158         19.30643   0.000000  10.59888  23.89408   4.59888  23.89408   4.57936  24.96908  10.57936  24.96908
      20   7.56962  25.50703         19.32252   0.000000  10.57936  24.96908   4.57936  24.96908   4.55991  26.04498  10.55991  26.04498
      20   7.55021  26.58338         19.33863   0.000000  10.55991  26.04498   4.55991  26.04498   4.54053  27.12177  10.54053  27.12177
      20   7.53086  27.66062         19.35475   0.000000  10.54053  27.12177   4.54053  27.12177   4.52122  28.19947  10.52122  28.19947
      20   7.51158  28.73876         19.37089   0.000000  10.52122  28.19947   4.52122  28.19947   4.50196  29.27806  10.50196  29.27806
      20   7.49235  29.81780         19.38704   0.000000  10.50196  29.27806   4.50196  29.27806   4.48275  30.35755  10.48275  30.35755
      20   7.47316  30.89774         19.40320   0.000000  10.48275  30.35755   4.48275  30.35755   4.46359  31.43794  10.46359  31.43794
      20   7.45402  31.97858         19.41938   0.000000  10.46359  31.43794   4.46359  31.43794   4.44446  32.51923  10.44446  32.51923
      20   7.43490  33.06032         19.43557   0.000000  10.44446  32.51923   4.44446  32.51923   4.42536  33.60142  10.42536  33.60142
      20   7.41581  34.14297         19.45177   0.000000  10.42536  33.60142   4.42536  33.60142   4.40627  34.68451  10.40627  34.68451
      20   7.39673  35.22651         19.46799   0.000000  10.40627  34.68451   4.40627  34.68451   4.38720  35.76851  10.38720  35.76851
      20   7.37767  36.31096         19.48422   0.000000  10.38720  35.76851   4.38720  35.76851   4.36814  36.85341  10.36814  36.85341
      20   7.35860  37.39631         19.50046   0.000000  10.36814  36.85341   4.36814  36.85341   4.34907  37.93922  10.34907  37.93922
      20   7.33953  38.48257         19.51672   0.000000  10.34907  37.93922   4.34907  37.93922   4.32999  39.02593  10.32999  39.02593
      20   7.32044  39.56973         19.53299   0.000000  10.32999  39.02593   4.32999  39.02593   4.31089  40.11354  10.31089  40.11354
      20   7.30133  40.65780         19.54927   0.000000  10.31089  40.11354   4.31089  40.11354   4.29177  41.20207  10.29177  41.20207
      20   7.28220  41.74678         19.56557   0.000000  10.29177  41.20207   4.29177  41.20207   4.27262  42.29150  10.27262  42.29150
      20   7.26302  42.83667         19.58188   0.000000  10.27262  42.29150   4.27262  42.29150   4.25342  43.38184  10.25342  43.38184
      20   7.24380  43.92746         19.59821   0.000000  10.25342  43.38184   4.25342  43.38184   4.23418  44.47308  10.23418  44.47308
      20   7.22453  45.01916         19.61454   0.000000  10.23418  44.47308   4.23418  44.47308   4.21488  45.56524  10.21488  45.56524
      20   7.20520  46.11177         19.63090   0.000000  10.21488  45.56524   4.21488  45.56524   4.19551  46.65831  10.19551  46.65831
      20   7.18580  47.20530         19.64726   0.000000  10.19551  46.65831   4.19551  46.65831   4.17607  47.75229  10.17607  47.75229
      20   7.16632  48.29973         19.66364   0.000000  10.17607  47.75229   4.17607  47.75229   4.15656  48.84718  10.15656  48.84718
      20   7.14676  49.39508         19.68004   0.000000  10.15656  48.84718   4.15656  48.84718   4.13695  49.94298  10.13695  49.94298
      20   7.12711  50.49134         19.69644   0.000000  10.13695  49.94298   4.13695  49.94298   4.11725  51.03970  10.11725  51.03970
      20   7.10736  51.58852         19.71286   0.000000  10.11725  51.03970   4.11725  51.03970   4.09745  52.13733  10.09745  52.13733
      20   7.08750  52.68661         19.72930   0.000000  10.09745  52.13733   4.09745  52.13733   4.07753  53.23588  10.07753  53.23588
      20   7.06752  53.78561         19.74574   0.000000  10.07753  53.23588   4.07753  53.23588   4.05749  54.33534  10.05749  54.33534
      20   7.04742  54.88553         19.76221   0.000000  10.05749  54.33534   4.05749  54.33534   4.03733  55.43572  10.03733  55.43572
      20   7.02719  55.98637         19.77868   0.000000  10.03733  55.43572   4.03733  55.43572   4.01702  56.53702  10.01702  56.53702
      20   7.00682  57.08813         19.79517   0.000000  10.01702  56.53702   4.01702  56.53702   3.99658  57.63923   9.99658  57.63923
      20   6.98629  58.19080         19.81167   0.000000   9.99658  57.63923   3.99658  57.63923   3.97598  58.74237   9.97598  58.74237
      20   6.96562  59.29440         19.82819   0.000000   9.97598  58.74237   3.97598  58.74237   3.95522  59.84642   9.95522  59.84642
      20   6.94477  60.39891         19.84472   0.000000   9.95522  59.84642   3.95522  59.84642   3.93429  60.95140   9.93429  60.95140
      20   6.92375  61.50434         19.86126   0.000000   9.93429  60.95140   3.93429  60.95140   3.91318  62.05729   9.91318  62.05729
      20   6.90255  62.61070         19.87782   0.000000   9.91318  62.05729   3.91318  62.05729   3.89188  63.16411   9.89188  63.16411
      20   6.88116  63.71798         19.89439   0.000000   9.89188  63.16411   3.89188  63.16411   3.87039  64.27185   9.87039  64.27185
      20   6.85957  64.82618         19.91098   0.000000   9.87039  64.27185   3.87039  64.27185   3.84870  65.38051   9.84870  65.38051
      20   6.83777  65.93531         19.92758   0.000000   9.84870  65.38051   3.84870  65.38051   3.82679  66.49010   9.82679  66.49010
      20   6.81575  67.04536         19.94419   0.000000   9.82679  66.49010   3.82679  66.49010   3.80466  67.60061   9.80466  67.60061
      20   6.79351  68.15633         19.96082   0.000000   9.80466  67.60061   3.80466  67.60061   3.78231  68.71205   9.78231  68.71205
      20   6.77104  69.26823         19.97746   0.000000   9.78231  68.71205   3.78231  68.71205   3.75971  69.82442   9.75971  69.82442
      20   6.74832  70.38106         19.99412   0.000000   9.75971  69.82442   3.75971  69.82442   3.73687  70.93771   9.73687  70.93771
      20   6.72536  71.49482         20.01078   0.000000   9.73687  70.93771   3.73687  70.93771   3.71378  72.05193   9.71378  72.05193
      20   6.70213  72.60950         20.02747   0.000000   9.71378  72.05193   3.71378  72.05193   3.69042  73.16708   9.69042  73.16708
      20   6.67863  73.72512         20.04416   0.000000   9.69042  73.16708   3.69042  73.16708   3.66678  74.28316   9.66678  74.28316
      20   6.65486  74.84166         20.06087   0.000000   9.66678  74.28316   3.66678  74.28316   3.64287  75.40017   9.64287  75.40017
      20   6.63080  75.95914         20.07760   0.000000   9.64287  75.40017   3.64287  75.40017   3.61866  76.51811   9.61866  76.51811
      20   6.60644  77.07754         20.09434   0.000000   9.61866  76.51811   3.61866  76.51811   3.59416  77.63698   9.59416  77.63698
      20   6.58178  78.19688         20.11109   0.000000   9.59416  77.63698   3.59416  77.63698   3.56934  78.75679   9.56934  78.75679
      20   6.55681  79.31716         20.12786   0.000000   9.56934  78.75679   3.56934  78.75679   3.54421  79.87753   9.54421  79.87753
      20   6.53151  80.43836         20.14464   0.000000   9.54421  79.87753   3.54421  79.87753   3.51875  80.99920   9.51875  80.99920
      20   6.50589  81.56050         20.16143   0.000000   9.51875  80.99920   3.51875  80.99920   3.49295  82.12181   9.49295  82.12181
      20   6.47992  82.68358         20.17824   0.000000   9.49295  82.12181   3.49295  82.12181   3.46681  83.24535   9.46681  83.24535
      20   6.45360  83.80759         20.19506   0.000000   9.46681  83.24535   3.46681  83.24535   3.44031  84.36983   9.44031  84.36983
      20   6.42692  84.93254         20.21190   0.000000   9.44031  84.36983   3.44031  84.36983   3.41345  85.49525   9.41345  85.49525
      20   6.39988  86.05843         20.22875   0.000000   9.41345  85.49525   3.41345  85.49525   3.38621  86.62161   9.38621  86.62161
      20   6.37245  87.18526         20.24561   0.000000   9.38621  86.62161   3.38621  86.62161   3.35860  87.74891   9.35860  87.74891
      20   6.34464  88.31302         20.26249   0.000000   9.35860  87.74891   3.35860  87.74891   3.33059  88.87714   9.33059  88.87714
      20   6.31643  89.44173         20.27938   0.000000   9.33059  88.87714   3.33059  88.87714   3.30218  90.00632   9.30218  90.00632
      20   6.28782  90.57138         20.29629   0.000000   9.30218  90.00632   3.30218  90.00632   3.27336  91.13644   9.27336  91.13644
      20   6.25878  91.70197         20.31321   0.000000   9.27336  91.13644   3.27336  91.13644   3.24411  92.26750   9.24411  92.26750
      20   6.22933  92.83350         20.33014   0.000000   9.24411  92.26750   3.24411  92.26750   3.21444  93.39950   9.21444  93.39950
      20   6.19944  93.96597         20.34709   0.000000   9.21444  93.39950   3.21444  93.39950   3.18433  94.53245   9.18433  94.53245
      20   6.16910  95.09939         20.36406   0.000000   9.18433  94.53245   3.18433  94.53245   3.15377  95.66634   9.15377  95.66634
      20   6.13831  96.23376         20.38103   0.000000   9.15377  95.66634   3.15377  95.66634   3.12275  96.80117   9.12275  96.80117
      20   6.10706  97.36906         20.39802   0.000000   9.12275  96.80117   3.12275  96.80117   3.09126  97.93696   9.09126  97.93696
      20   6.07533  98.50532         20.41503   0.000000   9.09126  97.93696   3.09126  97.93696   3.05929  99.07369   9.05929  99.07369
      20   6.04312  99.64252         20.43205   0.000000   9.05929  99.07369   3.05929  99.07369   3.02683 100.21136   9.02683 100.21136
      20   6.01041 100.78068         20.44908   0.000000   9.02683 100.21136   3.02683 100.21136   2.99387 101.34999   8.99387 101.34999
      20   5.97720 101.91978         20.46613   0.000000   8.99387 101.34999   2.99387 101.34999   2.96041 102.48956   8.96041 102.48956
      20   5.94348 103.05983         20.48319   0.000000   8.96041 102.48956   2.96041 102.48956   2.92642 103.63009   8.92642 103.63009
      20   5.90923 104.20083         20.50027   0.000000   8.92642 103.63009   2.92642 103.63009   2.89191 104.77156   8.89191 104.77156
      20   5.87445 105.34278         20.51736   0.000000   8.89191 104.77156   2.89191 104.77156   2.85686 105.91399   8.85686 105.91399
      20   5.83913 106.48568         20.53446   0.000000   8.85686 105.91399   2.85686 105.91399   2.82126 107.05737   8.82126 107.05737
      20   5.80325 107.62954         20.55158   0.000000   8.82126 107.05737   2.82126 107.05737   2.78511 108.20170   8.78511 108.20170
      20   5.76681 108.77435         20.56872   0.000000   8.78511 108.20170   2.78511 108.20170   2.74838 109.34699   8.74838 109.34699
      20   5.72979 109.92011         20.58587   0.000000   8.74838 109.34699   2.74838 109.34699   2.71107 110.49323   8.71107 110.49323
      20   5.69219 111.06683         20.60303   0.000000   8.71107 110.49323   2.71107 110.49323   2.67317 111.64043   8.67317 111.64043
      20   5.65400 112.21451         20.62020   0.000000   8.67317 111.64043   2.67317 111.64043   2.63468 112.78858   8.63468 112.78858
      20   5.61520 113.36314         20.63739   0.000000   8.63468 112.78858   2.63468 112.78858   2.59557 113.93770   8.59557 113.93770
      20   5.57578 114.51273         20.65460   0.000000   8.59557 113.93770   2.59557 113.93770   2.55584 115.08776   8.55584 115.08776
      20   5.53574 115.66328         20.67182   0.000000   8.55584 115.08776   2.55584 115.08776   2.51548 116.23879   8.51548 116.23879
      20   5.49506 116.81479         20.68905   0.000000   8.51548 116.23879   2.51548 116.23879   2.47448 117.39078   8.47448 117.39078
      20   5.45373 117.96725         20.70630   0.000000   8.47448 117.39078   2.47448 117.39078   2.43282 118.54373   8.43282 118.54373
      20   5.41174 119.12068         20.72356   0.000000   8.43282 118.54373   2.43282 118.54373   2.39050 119.69764   8.39050 119.69764
      20   5.36909 120.27507         20.74084   0.000000   8.39050 119.69764   2.39050 119.69764   2.34751 120.85251   8.34751 120.85251
      20   5.32575 121.43043         20.75813   0.000000   8.34751 120.85251   2.34751 120.85251   2.30383 122.00834   8.30383 122.00834
      20   5.28173 122.58674         20.77544   0.000000   8.30383 122.00834   2.30383 122.00834   2.25946 123.16514   8.25946 123.16514
      20   5.23700 123.74402         20.79276   0.000000   8.25946 123.16514   2.25946 123.16514   2.21438 124.32290   8.21438 124.32290
      20   5.19157 124.90227         20.81009   0.000000   8.21438 124.32290   2.21438 124.32290   2.16858 125.48163   8.16858 125.48163
      20   5.14541 126.06148         20.82744   0.000000   8.16858 125.48163   2.16858 125.48163   2.12206 126.64132   8.12206 126.64132
      20   5.09851 127.22165         20.84480   0.000000   8.12206 126.64132   2.12206 126.64132   2.07479 127.80198   8.07479 127.80198
      19  14.95059   1.33309         19.94419   0.000000  17.95048   0.80522  11.95048   0.80522  11.95060   1.86097  17.95060   1.86097
      19  14.95052   2.38928         19.96082   0.000000  17.95060   1.86097  11.95060   1.86097  11.95034   2.91760  17.95034   2.91760
      19  14.95007   3.44636         19.97746   0.000000  17.95034   2.91760  11.95034   2.91760  11.94970   3.97511  17.94970   3.97511
      19  14.94923   4.50431         19.99412   0.000000  17.94970   3.97511  11.94970   3.97511  11.94868   5.03351  17.94868   5.03351
      19  14.94802   5.56315         20.01078   0.000000  17.94868   5.03351  11.94868   5.03351  11.94727   6.09278  17.94727   6.09278
      19  14.94643   6.62286         20.02747   0.000000  17.94727   6.09278  11.94727   6.09278  11.94549   7.15294  17.94549   7.15294
      19  14.94446   7.68347         20.04416   0.000000  17.94549   7.15294  11.94549   7.15294  11.94334   8.21399  17.94334   8.21399
      19  14.94212   8.74495         20.06087   0.000000  17.94334   8.21399  11.94334   8.21399  11.94081   9.27592  17.94081   9.27592
      19  14.93941   9.80732         20.07760   0.000000  17.94081   9.27592  11.94081   9.27592  11.93792  10.33873  17.93792  10.33873
      19  14.93633  10.87058         20.09434   0.000000  17.93792  10.33873  11.93792  10.33873  11.93466  11.40243  17.93466  11.40243
      19  14.93289  11.93472         20.11109   0.000000  17.93466  11.40243  11.93466  11.40243  11.93103  12.46702  17.93103  12.46702
      19  14.92908  12.99975         20.12786   0.000000  17.93103  12.46702  11.93103  12.46702  11.92704  13.53249  17.92704  13.53249
      19  14.92491  14.06567         20.14464   0.000000  17.92704  13.53249  11.92704  13.53249  11.92269  14.59885  17.92269  14.59885
      19  14.92039  15.13248         20.16143   0.000000  17.92269  14.59885  11.92269  14.59885  11.91799  15.66610  17.91799  15.66610
      19  14.91550  16.20017         20.17824   0.000000  17.91799  15.66610  11.91799  15.66610  11.91293  16.73425  17.91293  16.73425
      19  14.91026  17.26876         20.19506   0.000000  17.91293  16.73425  11.91293  16.73425  11.90751  17.80328  17.90751  17.80328
      19  14.90468  18.33824         20.21190   0.000000  17.90751  17.80328  11.90751  17.80328  11.90175  18.87320  17.90175  18.87320
      19  14.89874  19.40861         20.22875   0.000000  17.90175  18.87320  11.90175  18.87320  11.89564  19.94401  17.89564  19.94401
      19  14.89245  20.47987         20.24561   0.000000  17.89564  19.94401  11.89564  19.94401  11.88918  21.01572  17.88918  21.01572
      19  14.88583  21.55202         20.26249   0.000000  17.88918  21.01572  11.88918  21.01572  11.88239  22.08832  17.88239  22.08832
      19  14.87886  22.62507         20.27938   0.000000  17.88239  22.08832  11.88239  22.08832  11.87525  23.16182  17.87525  23.16182
      19  14.87155  23.69901         20.29629   0.000000  17.87525  23.16182  11.87525  23.16182  11.86777  24.23621  17.86777  24.23621
      19  14.86391  24.77385         20.31321   0.000000  17.86777  24.23621  11.86777  24.23621  11.85996  25.31149  17.85996  25.31149
      19  14.85593  25.84959         20.33014   0.000000  17.85996  25.31149  11.85996  25.31149  11.85182  26.38768  17.85182  26.38768
      19  14.84762  26.92622         20.34709   0.000000  17.85182  26.38768  11.85182  26.38768  11.84334  27.46476  17.84334  27.46476
      19  14.83898  28.00375         20.36406   0.000000  17.84334  27.46476  11.84334  27.46476  11.83454  28.54273  17.83454  28.54273
      19  14.83002  29.08217         20.38103   0.000000  17.83454  28.54273  11.83454  28.54273  11.82542  29.62161  17.82542  29.62161
      19  14.82074  30.16150         20.39802   0.000000  17.82542  29.62161  11.82542  29.62161  11.81597  30.70139  17.81597  30.70139
      19  14.81113  31.24172         20.41503   0.000000  17.81597  30.70139  11.81597  30.70139  11.80621  31.78206  17.80621  31.78206
      19  14.80121  32.32285         20.43205   0.000000  17.80621  31.78206  11.80621  31.78206  11.79613  32.86364  17.79613  32.86364
      19  14.79097  33.40488         20.44908   0.000000  17.79613  32.86364  11.79613  32.86364  11.78573  33.94612  17.78573  33.94612
      19  14.78041  34.48781         20.46613   0.000000  17.78573  33.94612  11.78573  33.94612  11.77502  35.02950  17.77502  35.02950
      19  14.76955  35.57164         20.48319   0.000000  17.77502  35.02950  11.77502  35.02950  11.76401  36.11378  17.76401  36.11378
      19  14.75838  36.65638         20.50027   0.000000  17.76401  36.11378  11.76401  36.11378  11.75269  37.19897  17.75269  37.19897
      19  14.74691  37.74202         20.51736   0.000000  17.75269  37.19897  11.75269  37.19897  11.74106  38.28507  17.74106  38.28507
      19  14.73514  38.82856         20.53446   0.000000  17.74106  38.28507  11.74106  38.28507  11.72914  39.37206  17.72914  39.37206
      19  14.72306  39.91602         20.55158   0.000000  17.72914  39.37206  11.72914  39.37206  11.71692  40.45997  17.71692  40.45997
      19  14.71070  41.00437         20.56872   0.000000  17.71692  40.45997  11.71692  40.45997  11.70440  41.54878  17.70440  41.54878
      19  14.69803  42.09364         20.58587   0.000000  17.70440  41.54878  11.70440  41.54878  11.69159  42.63850  17.69159  42.63850
      19  14.68508  43.18381         20.60303   0.000000  17.69159  42.63850  11.69159  42.63850  11.67850  43.72913  17.67850  43.72913
      19  14.67184  44.27490         20.62020   0.000000  17.67850  43.72913  11.67850  43.72913  11.66512  44.82066  17.66512  44.82066
      19  14.65832  45.36689         20.63739   0.000000  17.66512  44.82066  11.66512  44.82066  11.65145  45.91311  17.65145  45.91311
      19  14.64451  46.45979         20.65460   0.000000  17.65145  45.91311  11.65145  45.91311  11.63750  47.00647  17.63750  47.00647
      19  14.63042  47.55360         20.67182   0.000000  17.63750  47.00647  11.63750  47.00647  11.62328  48.10074  17.62328  48.10074
      19  14.61606  48.64833         20.68905   0.000000  17.62328  48.10074  11.62328  48.10074  11.60878  49.19592  17.60878  49.19592
      19  14.60143  49.74397         20.70630   0.000000  17.60878  49.19592  11.60878  49.19592  11.59401  50.29201  17.59401  50.29201
      19  14.58653  50.84052         20.72356   0.000000  17.59401  50.29201  11.59401  50.29201  11.57897  51.38902  17.57897  51.38902
      19  14.57135  51.93798         20.74084   0.000000  17.57897  51.38902  11.57897  51.38902  11.56367  52.48695  17.56367  52.48695
      19  14.55592  53.03637         20.75813   0.000000  17.56367  52.48695  11.56367  52.48695  11.54810  53.58578  17.54810  53.58578
      19  14.54022  54.13566         20.77544   0.000000  17.54810  53.58578  11.54810  53.58578  11.53228  54.68554  17.53228  54.68554
      19  14.52427  55.23588         20.79276   0.000000  17.53228  54.68554  11.53228  54.68554  11.51620  55.78621  17.51620  55.78621
      19  14.50806  56.33701         20.81009   0.000000  17.51620  55.78621  11.51620  55.78621  11.49986  56.88780  17.49986  56.88780
      19  14.49160  57.43905         20.82744   0.000000  17.49986  56.88780  11.49986  56.88780  11.48327  57.99031  17.48327  57.99031
      19  14.47489  58.54202         20.84480   0.000000  17.48327  57.99031  11.48327  57.99031  11.46644  59.09373  17.46644  59.09373
      19  14.45793  59.64591         20.86218   0.000000  17.46644  59.09373  11.46644  59.09373  11.44936  60.19808  17.44936  60.19808
      19  14.44073  60.75071         20.87957   0.000000  17.44936  60.19808  11.44936  60.19808  11.43204  61.30335  17.43204  61.30335
      19  14.42329  61.85644         20.89698   0.000000  17.43204  61.30335  11.43204  61.30335  11.41448  62.40954  17.41448  62.40954
      19  14.40561  62.96309         20.91440   0.000000  17.41448  62.40954  11.41448  62.40954  11.39669  63.51665  17.39669  63.51665
      19  14.38770  64.07066         20.93184   0.000000  17.39669  63.51665  11.39669  63.51665  11.37866  64.62468  17.37866  64.62468
      19  14.36956  65.17916         20.94929   0.000000  17.37866  64.62468  11.37866  64.62468  11.36041  65.73364  17.36041  65.73364
      19  14.35120  66.28858         20.96675   0.000000  17.36041  65.73364  11.36041  65.73364  11.34193  66.84352  17.34193  66.84352
      19  14.33261  67.39892         20.98423   0.000000  17.34193  66.84352  11.34193  66.84352  11.32323  67.95433  17.32323  67.95433
      19  14.31379  68.51019         21.00173   0.000000  17.32323  67.95433  11.32323  67.95433  11.30431  69.06606  17.30431  69.06606
      19  14.29477  69.62239         21.01924   0.000000  17.30431  69.06606  11.30431  69.06606  11.28517  70.17872  17.28517  70.17872
      19  14.27552  70.73551         21.03676   0.000000  17.28517  70.17872  11.28517  70.17872  11.26582  71.29231  17.26582  71.29231
      19  14.25607  71.84957         21.05430   0.000000  17.26582  71.29231  11.26582  71.29231  11.24627  72.40682  17.24627  72.40682
      19  14.23641  72.96455         21.07185   0.000000  17.24627  72.40682  11.24627  72.40682  11.22650  73.52227  17.22650  73.52227
      19  14.21654  74.08046         21.08942   0.000000  17.22650  73.52227  11.22650  73.52227  11.20653  74.63864  17.20653  74.63864
      19  14.19647  75.19730         21.10700   0.000000  17.20653  74.63864  11.20653  74.63864  11.18637  75.75595  17.18637  75.75595
      19  14.17621  76.31507         21.12460   0.000000  17.18637  75.75595  11.18637  75.75595  11.16601  76.87419  17.16601  76.87419
      19  14.15575  77.43377         21.14221   0.000000  17.16601  76.87419  11.16601  76.87419  11.14545  77.99336  17.14545  77.99336
      19  14.13510  78.55341         21.15983   0.000000  17.14545  77.99336  11.14545  77.99336  11.12471  79.11346  17.12471  79.11346
      19  14.11426  79.67398         21.17747   0.000000  17.12471  79.11346  11.12471  79.11346  11.10378  80.23450  17.10378  80.23450
      19  14.09324  80.79548         21.19513   0.000000  17.10378  80.23450  11.10378  80.23450  11.08266  81.35647  17.08266  81.35647
      19  14.07204  81.91792         21.21280   0.000000  17.08266  81.35647  11.08266  81.35647  11.06137  82.47937  17.06137  82.47937
      19  14.05066  83.04130         21.23048   0.000000  17.06137  82.47937  11.06137  82.47937  11.03991  83.60322  17.03991  83.60322
      19  14.02910  84.16561         21.24818   0.000000  17.03991  83.60322  11.03991  83.60322  11.01827  84.72800  17.01827  84.72800
      19  14.00738  85.29086         21.26590   0.000000  17.01827  84.72800  11.01827  84.72800  10.99646  85.85371  16.99646  85.85371
      19  13.98549  86.41704         21.28363   0.000000  16.99646  85.85371  10.99646  85.85371  10.97449  86.98037  16.97449  86.98037
      19  13.96344  87.54417         21.30137   0.000000  16.97449  86.98037  10.97449  86.98037  10.95235  88.10796  16.95235  88.10796
      19  13.94122  88.67223         21.31913   0.000000  16.95235  88.10796  10.95235  88.10796  10.93006  89.23650  16.93006  89.23650
      19  13.91885  89.80124         21.33690   0.000000  16.93006  89.23650  10.93006  89.23650  10.90761  90.36598  16.90761  90.36598
      19  13.89633  90.93118         21.35469   0.000000  16.90761  90.36598  10.90761  90.36598  10.88502  91.49639  16.88502  91.49639
      19  13.87366  92.06207         21.37249   0.000000  16.88502  91.49639  10.88502  91.49639  10.86227  92.62775  16.86227  92.62775
      19  13.85084  93.19390         21.39031   0.000000  16.86227  92.62775  10.86227  92.62775  10.83939  93.76006  16.83939  93.76006
      19  13.82789  94.32668         21.40814   0.000000  16.83939  93.76006  10.83939  93.76006  10.81636  94.89330  16.81636  94.89330
      19  13.80479  95.46040         21.42599   0.000000  16.81636  94.89330  10.81636  94.89330  10.79319  96.02750  16.79319  96.02750
      19  13.78156  96.59506         21.44385   0.000000  16.79319  96.02750  10.79319  96.02750  10.76990  97.16263  16.76990  97.16263
      19  13.75820  97.73067         21.46173   0.000000  16.76990  97.16263  10.76990  97.16263  10.74647  98.29872  16.74647  98.29872
      19  13.73471  98.86723         21.47962   0.000000  16.74647  98.29872  10.74647  98.29872  10.72292  99.43575  16.72292  99.43575
      19  13.71110 100.00474         21.49753   0.000000  16.72292  99.43575  10.72292  99.43575  10.69925 100.57373  16.69925 100.57373
      19  13.68737 101.14319         21.51545   0.000000  16.69925 100.57373  10.69925 100.57373  10.67546 101.71265  16.67546 101.71265
      19  13.66352 102.28259         21.53339   0.000000  16.67546 101.71265  10.67546 101.71265  10.65156 102.85253  16.65156 102.85253
      19  13.63956 103.42294         21.55134   0.000000  16.65156 102.85253  10.65156 102.85253  10.62755 103.99336  16.62755 103.99336
      19  13.61550 104.56425         21.56931   0.000000  16.62755 103.99336  10.62755 103.99336  10.60343 105.13514  16.60343 105.13514
      19  13.59133 105.70650         21.58729   0.000000  16.60343 105.13514  10.60343 105.13514  10.57921 106.27787  16.57921 106.27787
      19  13.56706 106.84971         21.60529   0.000000  16.57921 106.27787  10.57921 106.27787  10.55489 107.42155  16.55489 107.42155
      19  13.54269 107.99387         21.62330   0.000000  16.55489 107.42155  10.55489 107.42155  10.53047 108.56619  16.53047 108.56619
      19  13.51823 109.13898         21.64133   0.000000  16.53047 108.56619  10.53047 108.56619  10.50597 109.71178  16.50597 109.71178
      19  13.49368 110.28505         21.65937   0.000000  16.50597 109.71178  10.50597 109.71178  10.48138 110.85832  16.48138 110.85832
      19  13.46905 111.43207         21.67742   0.000000  16.48138 110.85832  10.48138 110.85832  10.45670 112.00582  16.45670 112.00582
      19  13.44433 112.58005         21.69550   0.000000  16.45670 112.00582  10.45670 112.00582  10.43195 113.15428  16.43195 113.15428
      19  13.41954 113.72899         21.71358   0.000000  16.43195 113.15428  10.43195 113.15428  10.40712 114.30370  16.40712 114.30370
      19  13.39468 114.87888         21.73169   0.000000  16.40712 114.30370  10.40712 114.30370  10.38223 115.45407  16.38223 115.45407
      19  13.36975 116.02974         21.74980   0.000000  16.38223 115.45407  10.38223 115.45407  10.35726 116.60540  16.35726 116.60540
      19  13.34475 117.18155         21.76794   0.000000  16.35726 116.60540  10.35726 116.60540  10.33223 117.75770  16.33223 117.75770
      19  13.31969 118.33432         21.78608   0.000000  16.33223 117.75770  10.33223 117.75770  10.30715 118.91095  16.30715 118.91095
      19  13.29458 119.48806         21.80425   0.000000  16.30715 118.91095  10.30715 118.91095  10.28200 120.06516  16.28200 120.06516
      19  13.26941 120.64275         21.82242   0.000000  16.28200 120.06516  10.28200 120.06516  10.25681 121.22034  16.25681 121.22034
      19  13.24420 121.79841         21.84062   0.000000  16.25681 121.22034  10.25681 121.22034  10.23158 122.37648  16.23158 122.37648
      19  13.21894 122.95503         21.85882   0.000000  16.23158 122.37648  10.23158 122.37648  10.20630 123.53359  16.20630 123.53359
      19  13.19364 124.11262         21.87705   0.000000  16.20630 123.53359  10.20630 123.53359  10.18098 124.69165  16.18098 124.69165
      19  13.16830 125.27117         21.89529   0.000000  16.18098 124.69165  10.18098 124.69165  10.15563 125.85069  16.15563 125.85069
      19  13.14294 126.43069         21.91354   0.000000  16.15563 125.85069  10.15563 125.85069  10.13025 127.01069  16.13025 127.01069
      19  13.11754 127.59117         21.93181   0.000000  16.13025 127.01069  10.13025 127.01069  10.10484 128.17166  16.10484 128.17166
      18  22.80145   1.42102         21.03676   0.000000  26.04433   0.89311  19.54433   0.89311  19.55842   1.94894  26.05842   1.94894
      18  22.81524   2.47729         21.05430   0.000000  26.05842   1.94894  19.55842   1.94894  19.57191   3.00564  26.07191   3.00564
      18  22.82844   3.53443         21.07185   0.000000  26.07191   3.00564  19.57191   3.00564  19.58482   4.06323  26.08482   4.06323
      18  22.84106   4.59246         21.08942   0.000000  26.08482   4.06323  19.58482   4.06323  19.59716   5.12170  26.09716   5.12170
      18  22.85311   5.65137         21.10700   0.000000  26.09716   5.12170  19.59716   5.12170  19.60892   6.18105  26.10892   6.18105
      18  22.86458   6.71116         21.12460   0.000000  26.10892   6.18105  19.60892   6.18105  19.62011   7.24128  26.12011   7.24128
      18  22.87549   7.77184         21.14221   0.000000  26.12011   7.24128  19.62011   7.24128  19.63073   8.30240  26.13073   8.30240
      18  22.88583   8.83340         21.15983   0.000000  26.13073   8.30240  19.63073   8.30240  19.64078   9.36440  26.14078   9.36440
      18  22.89560   9.89584         21.17747   0.000000  26.14078   9.36440  19.64078   9.36440  19.65028  10.42729  26.15028  10.42729
      18  22.90482  10.95917         21.19513   0.000000  26.15028  10.42729  19.65028  10.42729  19.65922  11.49106  26.15922  11.49106
      18  22.91349  12.02339         21.21280   0.000000  26.15922  11.49106  19.65922  11.49106  19.66761  12.55572  26.16761  12.55572
      18  22.92160  13.08849         21.23048   0.000000  26.16761  12.55572  19.66761  12.55572  19.67546  13.62127  26.17546  13.62127
      18  22.92917  14.15449         21.24818   0.000000  26.17546  13.62127  19.67546  13.62127  19.68276  14.68770  26.18276  14.68770
      18  22.93620  15.22137         21.26590   0.000000  26.18276  14.68770  19.68276  14.68770  19.68951  15.75503  26.18951  15.75503
      18  22.94269  16.28914         21.28363   0.000000  26.18951  15.75503  19.68951  15.75503  19.69574  16.82324  26.19574  16.82324
      18  22.94865  17.35780         21.30137   0.000000  26.19574  16.82324  19.69574  16.82324  19.70143  17.89235  26.20143  17.89235
      18  22.95408  18.42735         21.31913   0.000000  26.20143  17.89235  19.70143  17.89235  19.70659  18.96235  26.20659  18.96235
      18  22.95898  19.49779         21.33690   0.000000  26.20659  18.96235  19.70659  18.96235  19.71123  20.03324  26.21123  20.03324
      18  22.96335  20.56913         21.35469   0.000000  26.21123  20.03324  19.71123  20.03324  19.71535  21.10502  26.21535  21.10502
      18  22.96722  21.64136         21.37249   0.000000  26.21535  21.10502  19.71535  21.10502  19.71895  22.17769  26.21895  22.17769
      18  22.97056  22.71448         21.39031   0.000000  26.21895  22.17769  19.71895  22.17769  19.72205  23.25126  26.22205  23.25126
      18  22.97340  23.78850         21.40814   0.000000  26.22205  23.25126  19.72205  23.25126  19.72463  24.32573  26.22463  24.32573
      18  22.97574  24.86341         21.42599   0.000000  26.22463  24.32573  19.72463  24.32573  19.72671  25.40109  26.22671  25.40109
      18  22.97757  25.93922         21.44385   0.000000  26.22671  25.40109  19.72671  25.40109  19.72830  26.47735  26.22830  26.47735
      18  22.97890  27.01593         21.46173   0.000000  26.22830  26.47735  19.72830  26.47735  19.72939  27.55450  26.22939  27.55450
      18  22.97975  28.09353         21.47962   0.000000  26.22939  27.55450  19.72939  27.55450  19.72999  28.63256  26.22999  28.63256
      18  22.98010  29.17203         21.49753   0.000000  26.22999  28.63256  19.72999  28.63256  19.73010  29.71151  26.23010  29.71151
      18  22.97997  30.25143         21.51545   0.000000  26.23010  29.71151  19.73010  29.71151  19.72973  30.79136  26.22973  30.79136
      18  22.97937  31.33173         21.53339   0.000000  26.22973  30.79136  19.72973  30.79136  19.72888  31.87211  26.22888  31.87211
      18  22.97828  32.41294         21.55134   0.000000  26.22888  31.87211  19.72888  31.87211  19.72756  32.95376  26.22756  32.95376
      18  22.97673  33.49504         21.56931   0.000000  26.22756  32.95376  19.72756  32.95376  19.72578  34.03632  26.22578  34.03632
      18  22.97471  34.57804         21.58729   0.000000  26.22578  34.03632  19.72578  34.03632  19.72353  35.11977  26.22353  35.11977
      18  22.97223  35.66195         21.60529   0.000000  26.22353  35.11977  19.72353  35.11977  19.72081  36.20413  26.22081  36.20413
      18  22.96929  36.74676         21.62330   0.000000  26.22081  36.20413  19.72081  36.20413  19.71765  37.28940  26.21765  37.28940
      18  22.96590  37.83248         21.64133   0.000000  26.21765  37.28940  19.71765  37.28940  19.71403  38.37556  26.21403  38.37556
      18  22.96205  38.91910         21.65937   0.000000  26.21403  38.37556  19.71403  38.37556  19.70997  39.46264  26.20997  39.46264
      18  22.95777  40.00663         21.67742   0.000000  26.20997  39.46264  19.70997  39.46264  19.70546  40.55062  26.20546  40.55062
      18  22.95305  41.09506         21.69550   0.000000  26.20546  40.55062  19.70546  40.55062  19.70052  41.63951  26.20052  41.63951
      18  22.94789  42.18440         21.71358   0.000000  26.20052  41.63951  19.70052  41.63951  19.69515  42.72930  26.19515  42.72930
      18  22.94230  43.27465         21.73169   0.000000  26.19515  42.72930  19.69515  42.72930  19.68935  43.82001  26.18935  43.82001
      18  22.93629  44.36581         21.74980   0.000000  26.18935  43.82001  19.68935  43.82001  19.68312  44.91162  26.18312  44.91162
      18  22.92985  45.45788         21.76794   0.000000  26.18312  44.91162  19.68312  44.91162  19.67648  46.00414  26.17648  46.00414
      18  22.92300  46.55086         21.78608   0.000000  26.17648  46.00414  19.67648  46.00414  19.66942  47.09758  26.16942  47.09758
      18  22.91574  47.64475         21.80425   0.000000  26.16942  47.09758  19.66942  47.09758  19.66196  48.19192  26.16196  48.19192
      18  22.90807  48.73955         21.82242   0.000000  26.16196  48.19192  19.66196  48.19192  19.65409  49.28718  26.15409  49.28718
      18  22.90000  49.83527         21.84062   0.000000  26.15409  49.28718  19.65409  49.28718  19.64582  50.38335  26.14582  50.38335
      18  22.89154  50.93189         21.85882   0.000000  26.14582  50.38335  19.64582  50.38335  19.63716  51.48044  26.13716  51.48044
      18  22.88268  52.02944         21.87705   0.000000  26.13716  51.48044  19.63716  51.48044  19.62810  52.57844  26.12810  52.57844
      18  22.87343  53.12789         21.89529   0.000000  26.12810  52.57844  19.62810  52.57844  19.61867  53.67735  26.11867  53.67735
      18  22.86380  54.22727         21.91354   0.000000  26.11867  53.67735  19.61867  53.67735  19.60885  54.77718  26.10885  54.77718
      18  22.85380  55.32756         21.93181   0.000000  26.10885  54.77718  19.60885  54.77718  19.59866  55.87793  26.09866  55.87793
      18  22.84342  56.42876         21.95009   0.000000  26.09866  55.87793  19.59866  55.87793  19.58810  56.97960  26.08810  56.97960
      18  22.83268  57.53089         21.96839   0.000000  26.08810  56.97960  19.58810  56.97960  19.57717  58.08218  26.07717  58.08218
      18  22.82157  58.63393         21.98671   0.000000  26.07717  58.08218  19.57717  58.08218  19.56588  59.18568  26.06588  59.18568
      18  22.81010  59.73790         22.00504   0.000000  26.06588  59.18568  19.56588  59.18568  19.55424  60.29011  26.05424  60.29011
      18  22.79828  60.84278         22.02338   0.000000  26.05424  60.29011  19.55424  60.29011  19.54225  61.39545  26.04225  61.39545
      18  22.78612  61.94858         22.04174   0.000000  26.04225  61.39545  19.54225  61.39545  19.52991  62.50172  26.02991  62.50172
      18  22.77361  63.05531         22.06012   0.000000  26.02991  62.50172  19.52991  62.50172  19.51723  63.60891  26.01723  63.60891
      18  22.76077  64.16296         22.07851   0.000000  26.01723  63.60891  19.51723  63.60891  19.50422  64.71702  26.00422  64.71702
      18  22.74759  65.27153         22.09692   0.000000  26.00422  64.71702  19.50422  64.71702  19.49088  65.82605  25.99088  65.82605
      18  22.73409  66.38103         22.11534   0.000000  25.99088  65.82605  19.49088  65.82605  19.47722  66.93601  25.97722  66.93601
      18  22.72027  67.49145         22.13377   0.000000  25.97722  66.93601  19.47722  66.93601  19.46324  68.04690  25.96324  68.04690
      18  22.70613  68.60280         22.15223   0.000000  25.96324  68.04690  19.46324  68.04690  19.44894  69.15871  25.94894  69.15871
      18  22.69167  69.71508         22.17069   0.000000  25.94894  69.15871  19.44894  69.15871  19.43434  70.27144  25.93434  70.27144
      18  22.67692  70.82828         22.18918   0.000000  25.93434  70.27144  19.43434  70.27144  19.41943  71.38511  25.91943  71.38511
      18  22.66186  71.94241         22.20768   0.000000  25.91943  71.38511  19.41943  71.38511  19.40422  72.49970  25.90422  72.49970
      18  22.64651  73.05747         22.22619   0.000000  25.90422  72.49970  19.40422  72.49970  19.38873  73.61523  25.88873  73.61523
      18  22.63087  74.17345         22.24472   0.000000  25.88873  73.61523  19.38873  73.61523  19.37294  74.73168  25.87294  74.73168
      18  22.61494  75.29037         22.26327   0.000000  25.87294  74.73168  19.37294  74.73168  19.35688  75.84906  25.85688  75.84906
      18  22.59874  76.40822         22.28183   0.000000  25.85688  75.84906  19.35688  75.84906  19.34054  76.96738  25.84054  76.96738
      18  22.58226  77.52700         22.30040   0.000000  25.84054  76.96738  19.34054  76.96738  19.32393  78.08663  25.82393  78.08663
      18  22.56552  78.64672         22.31899   0.000000  25.82393  78.08663  19.32393  78.08663  19.30705  79.20681  25.80705  79.20681
      18  22.54851  79.76737         22.33760   0.000000  25.80705  79.20681  19.30705  79.20681  19.28991  80.32792  25.78991  80.32792
      18  22.53125  80.88895         22.35622   0.000000  25.78991  80.32792  19.28991  80.32792  19.27253  81.44997  25.77253  81.44997
      18  22.51374  82.01146         22.37486   0.000000  25.77253  81.44997  19.27253  81.44997  19.25489  82.57296  25.75489  82.57296
      18  22.49598  83.13492         22.39351   0.000000  25.75489  82.57296  19.25489  82.57296  19.23701  83.69688  25.73701  83.69688
      18  22.47798  84.25931         22.41218   0.000000  25.73701  83.69688  19.23701  83.69688  19.21889  84.82174  25.71889  84.82174
      18  22.45975  85.38463         22.43087   0.000000  25.71889  84.82174  19.21889  84.82174  19.20055  85.94753  25.70055  85.94753
      18  22.44129  86.51090         22.44957   0.000000  25.70055  85.94753  19.20055  85.94753  19.18198  87.07427  25.68198  87.07427
      18  22.42261  87.63810         22.46828   0.000000  25.68198  87.07427  19.18198  87.07427  19.16318  88.20194  25.66318  88.20194
      18  22.40371  88.76625         22.48701   0.000000  25.66318  88.20194  19.16318  88.20194  19.14418  89.33055  25.64418  89.33055
      18  22.38460  89.89533         22.50576   0.000000  25.64418  89.33055  19.14418  89.33055  19.12497  90.46011  25.62497  90.46011
      18  22.36528  91.02536         22.52452   0.000000  25.62497  90.46011  19.12497  90.46011  19.10555  91.59060  25.60555  91.59060
      18  22.34577  92.15632         22.54330   0.000000  25.60555  91.59060  19.10555  91.59060  19.08594  92.72204  25.58594  92.72204
      18  22.32606  93.28823         22.56210   0.000000  25.58594  92.72204  19.08594  92.72204  19.06614  93.85442  25.56614  93.85442
      18  22.30617  94.42109         22.58091   0.000000  25.56614  93.85442  19.06614  93.85442  19.04616  94.98775  25.54616  94.98775
      18  22.28609  95.55489         22.59973   0.000000  25.54616  94.98775  19.04616  94.98775  19.02599  96.12202  25.52599  96.12202
      18  22.26585  96.68963         22.61857   0.000000  25.52599  96.12202  19.02599  96.12202  19.00566  97.25724  25.50566  97.25724
      18  22.24543  97.82532         22.63743   0.000000  25.50566  97.25724  19.00566  97.25724  18.98516  98.39340  25.48516  98.39340
      18  22.22484  98.96196         22.65630   0.000000  25.48516  98.39340  18.98516  98.39340  18.96450  99.53051  25.46450  99.53051
      18  22.20411 100.09954         22.67519   0.000000  25.46450  99.53051  18.96450  99.53051  18.94368 100.66857  25.44368 100.66857
      18  22.18322 101.23807         22.69409   0.000000  25.44368 100.66857  18.94368 100.66857  18.92272 101.80758  25.42272 101.80758
      18  22.16218 102.37755         22.71301   0.000000  25.42272 101.80758  18.92272 101.80758  18.90162 102.94753  25.40162 102.94753
      18  22.14101 103.51799         22.73195   0.000000  25.40162 102.94753  18.90162 102.94753  18.88038 104.08844  25.38038 104.08844
      18  22.11971 104.65937         22.75090   0.000000  25.38038 104.08844  18.88038 104.08844  18.85901 105.23030  25.35901 105.23030
      18  22.09827 105.80170         22.76987   0.000000  25.35901 105.23030  18.85901 105.23030  18.83752 106.37311  25.33752 106.37311
      18  22.07672 106.94499         22.78885   0.000000  25.33752 106.37311  18.83752 106.37311  18.81591 107.51687  25.31591 107.51687
      18  22.05506 108.08923         22.80785   0.000000  25.31591 107.51687  18.81591 107.51687  18.79419 108.66158  25.29419 108.66158
      18  22.03329 109.23442         22.82686   0.000000  25.29419 108.66158  18.79419 108.66158  18.77237 109.80725  25.27237 109.80725
      18  22.01142 110.38057         22.84589   0.000000  25.27237 109.80725  18.77237 109.80725  18.75045 110.95388  25.25045 110.95388
      18  21.98945 111.52767         22.86494   0.000000  25.25045 110.95388  18.75045 110.95388  18.72844 112.10146  25.22844 112.10146
      18  21.96740 112.67573         22.88400   0.000000  25.22844 112.10146  18.72844 112.10146  18.70635 113.25000  25.20635 113.25000
      18  21.94527 113.82475         22.90308   0.000000  25.20635 113.25000  18.70635 113.25000  18.68417 114.39949  25.18417 114.39949
      18  21.92306 114.97472         22.92217   0.000000  25.18417 114.39949  18.68417 114.39949  18.66193 115.54995  25.16193 115.54995
      18  21.90078 116.12565         22.94128   0.000000  25.16193 115.54995  18.66193 115.54995  18.63962 116.70136  25.13962 116.70136
      18  21.87844 117.27755         22.96041   0.000000  25.13962 116.70136  18.63962 116.70136  18.61726 117.85373  25.11726 117.85373
      18  21.85605 118.43040         22.97955   0.000000  25.11726 117.85373  18.61726 117.85373  18.59484 119.00707  25.09484 119.00707
      18  21.83361 119.58421         22.99871   0.000000  25.09484 119.00707  18.59484 119.00707  18.57237 120.16136  25.07237 120.16136
      18  21.81113 120.73899         23.01788   0.000000  25.07237 120.16136  18.57237 120.16136  18.54987 121.31662  25.04987 121.31662
      18  21.78861 121.89473         23.03707   0.000000  25.04987 121.31662  18.54987 121.31662  18.52734 122.47284  25.02734 122.47284
      18  21.76606 123.05143         23.05628   0.000000  25.02734 122.47284  18.52734 122.47284  18.50478 123.63002  25.00478 123.63002
      18  21.74350 124.20910         23.07550   0.000000  25.00478 123.63002  18.50478 123.63002  18.48221 124.78817  24.98221 124.78817
      18  21.72091 125.36773         23.09474   0.000000  24.98221 124.78817  18.48221 124.78817  18.45962 125.94729  24.95962 125.94729
      18  21.69832 126.52733         23.11399   0.000000  24.95962 125.94729  18.45962 125.94729  18.43703 127.10737  24.93703 127.10737
      18  21.67573 127.68789         23.13326   0.000000  24.93703 127.10737  18.43703 127.10737  18.41444 128.26841  24.91444 128.26841
      17  31.72695   1.93475         22.26327   0.000000  34.97034   1.40662  28.47034   1.40662  28.48345   2.46288  34.98345   2.46288
      17  31.73985   2.99144         22.28183   0.000000  34.98345   2.46288  28.48345   2.46288  28.49614   3.52001  34.99614   3.52001
      17  31.75232   4.04902         22.30040   0.000000  34.99614   3.52001  28.49614   3.52001  28.50840   4.57803  35.00840   4.57803
      17  31.76437   5.10747         22.31899   0.000000  35.00840   4.57803  28.50840   4.57803  28.52023   5.63692  35.02023   5.63692
      17  31.77599   6.16681         22.33760   0.000000  35.02023   5.63692  28.52023   5.63692  28.53165   6.69670  35.03165   6.69670
      17  31.78720   7.22703         22.35622   0.000000  35.03165   6.69670  28.53165   6.69670  28.54265   7.75736  35.04265   7.75736
      17  31.79799   8.28814         22.37486   0.000000  35.04265   7.75736  28.54265   7.75736  28.55323   8.81891  35.05323   8.81891
      17  31.80838   9.35013         22.39351   0.000000  35.05323   8.81891  28.55323   8.81891  28.56341   9.88134  35.06341   9.88134
      17  31.81835  10.41300         22.41218   0.000000  35.06341   9.88134  28.56341   9.88134  28.57319  10.94466  35.07319  10.94466
      17  31.82792  11.47677         22.43087   0.000000  35.07319  10.94466  28.57319  10.94466  28.58256  12.00887  35.08256  12.00887
      17  31.83710  12.54141         22.44957   0.000000  35.08256  12.00887  28.58256  12.00887  28.59153  13.07396  35.09153  13.07396
      17  31.84587  13.60695         22.46828   0.000000  35.09153  13.07396  28.59153  13.07396  28.60011  14.13994  35.10011  14.13994
      17  31.85425  14.67337         22.48701   0.000000  35.10011  14.13994  28.60011  14.13994  28.60830  15.20681  35.10830  15.20681
      17  31.86225  15.74069         22.50576   0.000000  35.10830  15.20681  28.60830  15.20681  28.61610  16.27457  35.11610  16.27457
      17  31.86986  16.80889         22.52452   0.000000  35.11610  16.27457  28.61610  16.27457  28.62352  17.34321  35.12352  17.34321
      17  31.87708  17.87798         22.54330   0.000000  35.12352  17.34321  28.62352  17.34321  28.63055  18.41275  35.13055  18.41275
      17  31.88393  18.94797         22.56210   0.000000  35.13055  18.41275  28.63055  18.41275  28.63721  19.48318  35.13721  19.48318
      17  31.89041  20.01885         22.58091   0.000000  35.13721  19.48318  28.63721  19.48318  28.64350  20.55451  35.14350  20.55451
      17  31.89651  21.09062         22.59973   0.000000  35.14350  20.55451  28.64350  20.55451  28.64942  21.62672  35.14942  21.62672
      17  31.90225  22.16328         22.61857   0.000000  35.14942  21.62672  28.64942  21.62672  28.65498  22.69984  35.15498  22.69984
      17  31.90762  23.23684         22.63743   0.000000  35.15498  22.69984  28.65498  22.69984  28.66017  23.77384  35.16017  23.77384
      17  31.91264  24.31129         22.65630   0.000000  35.16017  23.77384  28.66017  23.77384  28.66501  24.84874  35.16501  24.84874
      17  31.91730  25.38664         22.67519   0.000000  35.16501  24.84874  28.66501  24.84874  28.66949  25.92454  35.16949  25.92454
      17  31.92160  26.46288         22.69409   0.000000  35.16949  25.92454  28.66949  25.92454  28.67363  27.00123  35.17363  27.00123
      17  31.92556  27.54003         22.71301   0.000000  35.17363  27.00123  28.67363  27.00123  28.67741  28.07882  35.17741  28.07882
      17  31.92918  28.61807         22.73195   0.000000  35.17741  28.07882  28.67741  28.07882  28.68086  29.15731  35.18086  29.15731
      17  31.93246  29.69701         22.75090   0.000000  35.18086  29.15731  28.68086  29.15731  28.68397  30.23670  35.18397  30.23670
      17  31.93540  30.77685         22.76987   0.000000  35.18397  30.23670  28.68397  30.23670  28.68674  31.31699  35.18674  31.31699
      17  31.93801  31.85758         22.78885   0.000000  35.18674  31.31699  28.68674  31.31699  28.68919  32.39818  35.18919  32.39818
      17  31.94029  32.93922         22.80785   0.000000  35.18919  32.39818  28.68919  32.39818  28.69131  33.48027  35.19131  33.48027
      17  31.94225  34.02177         22.82686   0.000000  35.19131  33.48027  28.69131  33.48027  28.69311  34.56326  35.19311  34.56326
      17  31.94389  35.10521         22.84589   0.000000  35.19311  34.56326  28.69311  34.56326  28.69459  35.64716  35.19459  35.64716
      17  31.94521  36.18956         22.86494   0.000000  35.19459  35.64716  28.69459  35.64716  28.69575  36.73196  35.19575  36.73196
      17  31.94622  37.27481         22.88400   0.000000  35.19575  36.73196  28.69575  36.73196  28.69661  37.81766  35.19661  37.81766
      17  31.94692  38.36097         22.90308   0.000000  35.19661  37.81766  28.69661  37.81766  28.69716  38.90427  35.19716  38.90427
      17  31.94732  39.44803         22.92217   0.000000  35.19716  38.90427  28.69716  38.90427  28.69741  39.99178  35.19741  39.99178
      17  31.94742  40.53600         22.94128   0.000000  35.19741  39.99178  28.69741  39.99178  28.69736  41.08021  35.19736  41.08021
      17  31.94722  41.62487         22.96041   0.000000  35.19736  41.08021  28.69736  41.08021  28.69702  42.16954  35.19702  42.16954
      17  31.94674  42.71465         22.97955   0.000000  35.19702  42.16954  28.69702  42.16954  28.69639  43.25977  35.19639  43.25977
      17  31.94597  43.80535         22.99871   0.000000  35.19639  43.25977  28.69639  43.25977  28.69547  44.35092  35.19547  44.35092
      17  31.94491  44.89695         23.01788   0.000000  35.19547  44.35092  28.69547  44.35092  28.69428  45.44297  35.19428  45.44297
      17  31.94358  45.98946         23.03707   0.000000  35.19428  45.44297  28.69428  45.44297  28.69281  46.53594  35.19281  46.53594
      17  31.94197  47.08288         23.05628   0.000000  35.19281  46.53594  28.69281  46.53594  28.69107  47.62982  35.19107  47.62982
      17  31.94009  48.17721         23.07550   0.000000  35.19107  47.62982  28.69107  47.62982  28.68906  48.72461  35.18906  48.72461
      17  31.93795  49.27246         23.09474   0.000000  35.18906  48.72461  28.68906  48.72461  28.68678  49.82031  35.18678  49.82031
      17  31.93555  50.36862         23.11399   0.000000  35.18678  49.82031  28.68678  49.82031  28.68425  50.91692  35.18425  50.91692
      17  31.93289  51.46569         23.13326   0.000000  35.18425  50.91692  28.68425  50.91692  28.68147  52.01445  35.18147  52.01445
      17  31.92998  52.56368         23.15254   0.000000  35.18147  52.01445  28.68147  52.01445  28.67843  53.11290  35.17843  53.11290
      17  31.92682  53.66258         23.17185   0.000000  35.17843  53.11290  28.67843  53.11290  28.67515  54.21226  35.17515  54.21226
      17  31.92342  54.76240         23.19116   0.000000  35.17515  54.21226  28.67515  54.21226  28.67163  55.31254  35.17163  55.31254
      17  31.91978  55.86313         23.21050   0.000000  35.17163  55.31254  28.67163  55.31254  28.66787  56.41373  35.16787  56.41373
      17  31.91590  56.96479         23.22985   0.000000  35.16787  56.41373  28.66787  56.41373  28.66388  57.51584  35.16388  57.51584
      17  31.91180  58.06736         23.24921   0.000000  35.16388  57.51584  28.66388  57.51584  28.65966  58.61887  35.15966  58.61887
      17  31.90747  59.17085         23.26860   0.000000  35.15966  58.61887  28.65966  58.61887  28.65522  59.72282  35.15522  59.72282
      17  31.90292  60.27526         23.28800   0.000000  35.15522  59.72282  28.65522  59.72282  28.65056  60.82770  35.15056  60.82770
      17  31.89815  61.38059         23.30741   0.000000  35.15056  60.82770  28.65056  60.82770  28.64569  61.93349  35.14569  61.93349
      17  31.89317  62.48685         23.32684   0.000000  35.14569  61.93349  28.64569  61.93349  28.64061  63.04020  35.14061  63.04020
      17  31.88799  63.59402         23.34629   0.000000  35.14061  63.04020  28.64061  63.04020  28.63532  64.14784  35.13532  64.14784
      17  31.88260  64.70212         23.36575   0.000000  35.13532  64.14784  28.63532  64.14784  28.62984  65.25640  35.12984  65.25640
      17  31.87702  65.81114         23.38523   0.000000  35.12984  65.25640  28.62984  65.25640  28.62416  66.36588  35.12416  66.36588
      17  31.87124  66.92109         23.40473   0.000000  35.12416  66.36588  28.62416  66.36588  28.61829  67.47629  35.11829  67.47629
      17  31.86528  68.03196         23.42424   0.000000  35.11829  67.47629  28.61829  67.47629  28.61223  68.58763  35.11223  68.58763
      17  31.85913  69.14376         23.44377   0.000000  35.11223  68.58763  28.61223  68.58763  28.60599  69.69989  35.10599  69.69989
      17  31.85281  70.25648         23.46331   0.000000  35.10599  69.69989  28.60599  69.69989  28.59958  70.81308  35.09958  70.81308
      17  31.84631  71.37014         23.48287   0.000000  35.09958  70.81308  28.59958  70.81308  28.59300  71.92720  35.09300  71.92720
      17  31.83964  72.48472         23.50245   0.000000  35.09300  71.92720  28.59300  71.92720  28.58625  73.04224  35.08625  73.04224
      17  31.83281  73.60023         23.52204   0.000000  35.08625  73.04224  28.58625  73.04224  28.57934  74.15822  35.07934  74.15822
      17  31.82582  74.71667         23.54165   0.000000  35.07934  74.15822  28.57934  74.15822  28.57227  75.27512  35.07227  75.27512
      17  31.81868  75.83404         23.56128   0.000000  35.07227  75.27512  28.57227  75.27512  28.56505  76.39296  35.06505  76.39296
      17  31.81139  76.95234         23.58092   0.000000  35.06505  76.39296  28.56505  76.39296  28.55769  77.51173  35.05769  77.51173
      17  31.80395  78.07158         23.60058   0.000000  35.05769  77.51173  28.55769  77.51173  28.55018  78.63143  35.05018  78.63143
      17  31.79638  79.19175         23.62026   0.000000  35.05018  78.63143  28.55018  78.63143  28.54254  79.75206  35.04254  79.75206
      17  31.78867  80.31285         23.63995   0.000000  35.04254  79.75206  28.54254  79.75206  28.53477  80.87363  35.03477  80.87363
      17  31.78083  81.43488         23.65966   0.000000  35.03477  80.87363  28.53477  80.87363  28.52687  81.99614  35.02687  81.99614
      17  31.77287  82.55786         23.67938   0.000000  35.02687  81.99614  28.52687  81.99614  28.51885  83.11958  35.01885  83.11958
      17  31.76479  83.68177         23.69912   0.000000  35.01885  83.11958  28.51885  83.11958  28.51071  84.24395  35.01071  84.24395
      17  31.75660  84.80661         23.71888   0.000000  35.01071  84.24395  28.51071  84.24395  28.50247  85.36927  35.00247  85.36927
      17  31.74830  85.93239         23.73865   0.000000  35.00247  85.36927  28.50247  85.36927  28.49411  86.49552  34.99411  86.49552
      17  31.73990  87.05911         23.75844   0.000000  34.99411  86.49552  28.49411  86.49552  28.48566  87.62271  34.98566  87.62271
      17  31.73140  88.18678         23.77825   0.000000  34.98566  87.62271  28.48566  87.62271  28.47711  88.75084  34.97711  88.75084
      17  31.72280  89.31538         23.79807   0.000000  34.97711  88.75084  28.47711  88.75084  28.46847  89.87991  34.96847  89.87991
      17  31.71412  90.44492         23.81791   0.000000  34.96847  89.87991  28.46847  89.87991  28.45975  91.00992  34.95975  91.00992
      17  31.70536  91.57540         23.83777   0.000000  34.95975  91.00992  28.45975  91.00992  28.45095  92.14088  34.95095  92.14088
      17  31.69652  92.70683         23.85764   0.000000  34.95095  92.14088  28.45095  92.14088  28.44207  93.27278  34.94207  93.27278
      17  31.68761  93.83920         23.87753   0.000000  34.94207  93.27278  28.44207  93.27278  28.43313  94.40562  34.93313  94.40562
      17  31.67863  94.97251         23.89744   0.000000  34.93313  94.40562  28.43313  94.40562  28.42412  95.53940  34.92412  95.53940
      17  31.66959  96.10677         23.91736   0.000000  34.92412  95.53940  28.42412  95.53940  28.41505  96.67413  34.91505  96.67413
      17  31.66050  97.24197         23.93730   0.000000  34.91505  96.67413  28.41505  96.67413  28.40594  97.80981  34.90594  97.80981
      17  31.65136  98.37812         23.95726   0.000000  34.90594  97.80981  28.40594  97.80981  28.39677  98.94643  34.89677  98.94643
      17  31.64217  99.51522         23.97723   0.000000  34.89677  98.94643  28.39677  98.94643  28.38756 100.08400  34.88756 100.08400
      17  31.63295 100.65326         23.99722   0.000000  34.88756 100.08400  28.38756 100.08400  28.37832 101.22252  34.87832 101.22252
      17  31.62369 101.79226         24.01723   0.000000  34.87832 101.22252  28.37832 101.22252  28.36905 102.36199  34.86905 102.36199
      17  31.61440 102.93220         24.03725   0.000000  34.86905 102.36199  28.36905 102.36199  28.35975 103.50241  34.85975 103.50241
      17  31.60510 104.07309         24.05729   0.000000  34.85975 103.50241  28.35975 103.50241  28.35044 104.64378  34.85044 104.64378
      17  31.59577 105.21494         24.07735   0.000000  34.85044 104.64378  28.35044 104.64378  28.34111 105.78610  34.84111 105.78610
      17  31.58644 106.35773         24.09742   0.000000  34.84111 105.78610  28.34111 105.78610  28.33177 106.92937  34.83177 106.92937
      17  31.57710 107.50148         24.11751   0.000000  34.83177 106.92937  28.33177 106.92937  28.32243 108.07360  34.82243 108.07360
      17  31.56777 108.64619         24.13761   0.000000  34.82243 108.07360  28.32243 108.07360  28.31310 109.21878  34.81310 109.21878
      17  31.55843 109.79184         24.15774   0.000000  34.81310 109.21878  28.31310 109.21878  28.30377 110.36491  34.80377 110.36491
      17  31.54912 110.93846         24.17788   0.000000  34.80377 110.36491  28.30377 110.36491  28.29446 111.51200  34.79446 111.51200
      17  31.53982 112.08602         24.19803   0.000000  34.79446 111.51200  28.29446 111.51200  28.28518 112.66005  34.78518 112.66005
      17  31.53054 113.23455         24.21821   0.000000  34.78518 112.66005  28.28518 112.66005  28.27591 113.80905  34.77591 113.80905
      17  31.52129 114.38403         24.23840   0.000000  34.77591 113.80905  28.27591 113.80905  28.26668 114.95901  34.76668 114.95901
      17  31.51208 115.53447         24.25860   0.000000  34.76668 114.95901  28.26668 114.95901  28.25749 116.10993  34.75749 116.10993
      17  31.50292 116.68587         24.27883   0.000000  34.75749 116.10993  28.25749 116.10993  28.24835 117.26181  34.74835 117.26181
      17  31.49379 117.83823         24.29907   0.000000  34.74835 117.26181  28.24835 117.26181  28.23925 118.41465  34.73925 118.41465
      17  31.48473 118.99155         24.31933   0.000000  34.73925 118.41465  28.23925 118.41465  28.23022 119.56845  34.73022 119.56845
      17  31.47572 120.14583         24.33960   0.000000  34.73022 119.56845  28.23022 119.56845  28.22124 120.72321  34.72124 120.72321
      17  31.46678 121.30108         24.35989   0.000000  34.72124 120.72321  28.22124 120.72321  28.21234 121.87894  34.71234 121.87894
      17  31.45791 122.45728         24.38020   0.000000  34.71234 121.87894  28.21234 121.87894  28.20350 123.03563  34.70350 123.03563
      17  31.44912 123.61445         24.40053   0.000000  34.70350 123.03563  28.20350 123.03563  28.19475 124.19328  34.69475 124.19328
      17  31.44041 124.77259         24.42087   0.000000  34.69475 124.19328  28.19475 124.19328  28.18609 125.35190  34.68609 125.35190
      17  31.43179 125.93169         24.44123   0.000000  34.68609 125.35190  28.18609 125.35190  28.17752 126.51148  34.67752 126.51148
      17  31.42327 127.09176         24.46160   0.000000  34.67752 126.51148  28.17752 126.51148  28.16905 127.67203  34.66905 127.67203
      16  41.44676   1.36601         23.62026   0.000000  44.69107   0.83812  38.19107   0.83812  38.20247   1.89390  44.70247   1.89390
      16  41.45822   2.42223         23.63995   0.000000  44.70247   1.89390  38.20247   1.89390  38.21399   2.95056  44.71399   2.95056
      16  41.46978   3.47933         23.65966   0.000000  44.71399   2.95056  38.21399   2.95056  38.22560   4.00810  44.72560   4.00810
      16  41.48144   4.53731         23.67938   0.000000  44.72560   4.00810  38.22560   4.00810  38.23731   5.06653  44.73731   5.06653
      16  41.49320   5.59618         23.69912   0.000000  44.73731   5.06653  38.23731   5.06653  38.24911   6.12583  44.74911   6.12583
      16  41.50505   6.65593         23.71888   0.000000  44.74911   6.12583  38.24911   6.12583  38.26100   7.18602  44.76100   7.18602
      16  41.51698   7.71656         23.73865   0.000000  44.76100   7.18602  38.26100   7.18602  38.27298   8.24709  44.77298   8.24709
      16  41.52901   8.77807         23.75844   0.000000  44.77298   8.24709  38.27298   8.24709  38.28505   9.30905  44.78505   9.30905
      16  41.54111   9.84047         23.77825   0.000000  44.78505   9.30905  38.28505   9.30905  38.29719  10.37189  44.79719  10.37189
      16  41.55329  10.90376         23.79807   0.000000  44.79719  10.37189  38.29719  10.37189  38.30940  11.43562  44.80940  11.43562
      16  41.56554  11.96793         23.81791   0.000000  44.80940  11.43562  38.30940  11.43562  38.32169  12.50024  44.82169  12.50024
      16  41.57786  13.03299         23.83777   0.000000  44.82169  12.50024  38.32169  12.50024  38.33404  13.56574  44.83404  13.56574
      16  41.59024  14.09894         23.85764   0.000000  44.83404  13.56574  38.33404  13.56574  38.34646  14.63213  44.84646  14.63213
      16  41.60269  15.16577         23.87753   0.000000  44.84646  14.63213  38.34646  14.63213  38.35894  15.69941  44.85894  15.69941
      16  41.61520  16.23350         23.89744   0.000000  44.85894  15.69941  38.35894  15.69941  38.37147  16.76758  44.87147  16.76758
      16  41.62776  17.30211         23.91736   0.000000  44.87147  16.76758  38.37147  16.76758  38.38406  17.83664  44.88406  17.83664
      16  41.64037  18.37162         23.93730   0.000000  44.88406  17.83664  38.38406  17.83664  38.39670  18.90660  44.89670  18.90660
      16  41.65303  19.44202         23.95726   0.000000  44.89670  18.90660  38.39670  18.90660  38.40938  19.97744  44.90938  19.97744
      16  41.66574  20.51331         23.97723   0.000000  44.90938  19.97744  38.40938  19.97744  38.42210  21.04918  44.92210  21.04918
      16  41.67848  21.58549         23.99722   0.000000  44.92210  21.04918  38.42210  21.04918  38.43486  22.12181  44.93486  22.12181
      16  41.69125  22.65857         24.01723   0.000000  44.93486  22.12181  38.43486  22.12181  38.44765  23.19533  44.94765  23.19533
      16  41.70406  23.73254         24.03725   0.000000  44.94765  23.19533  38.44765  23.19533  38.46047  24.26975  44.96047  24.26975
      16  41.71689  24.80741         24.05729   0.000000  44.96047  24.26975  38.46047  24.26975  38.47332  25.34507  44.97332  25.34507
      16  41.72975  25.88317         24.07735   0.000000  44.97332  25.34507  38.47332  25.34507  38.48619  26.42128  44.98619  26.42128
      16  41.74263  26.95983         24.09742   0.000000  44.98619  26.42128  38.48619  26.42128  38.49907  27.49839  44.99907  27.49839
      16  41.75552  28.03739         24.11751   0.000000  44.99907  27.49839  38.49907  27.49839  38.51197  28.57639  45.01197  28.57639
      16  41.76843  29.11584         24.13761   0.000000  45.01197  28.57639  38.51197  28.57639  38.52488  29.65530  45.02488  29.65530
      16  41.78134  30.19520         24.15774   0.000000  45.02488  29.65530  38.52488  29.65530  38.53779  30.73510  45.03779  30.73510
      16  41.79425  31.27545         24.17788   0.000000  45.03779  30.73510  38.53779  30.73510  38.55071  31.81581  45.05071  31.81581
      16  41.80717  32.35661         24.19803   0.000000  45.05071  31.81581  38.55071  31.81581  38.56362  32.89741  45.06362  32.89741
      16  41.82007  33.43867         24.21821   0.000000  45.06362  32.89741  38.56362  32.89741  38.57652  33.97992  45.07652  33.97992
      16  41.83297  34.52163         24.23840   0.000000  45.07652  33.97992  38.57652  33.97992  38.58942  35.06333  45.08942  35.06333
      16  41.84586  35.60549         24.25860   0.000000  45.08942  35.06333  38.58942  35.06333  38.60230  36.14764  45.10230  36.14764
      16  41.85873  36.69025         24.27883   0.000000  45.10230  36.14764  38.60230  36.14764  38.61515  37.23286  45.11515  37.23286
      16  41.87158  37.77592         24.29907   0.000000  45.11515  37.23286  38.61515  37.23286  38.62799  38.31898  45.12799  38.31898
      16  41.88440  38.86250         24.31933   0.000000  45.12799  38.31898  38.62799  38.31898  38.64080  39.40601  45.14080  39.40601
      16  41.89719  39.94998         24.33960   0.000000  45.14080  39.40601  38.64080  39.40601  38.65357  40.49394  45.15357  40.49394
      16  41.90995  41.03836         24.35989   0.000000  45.15357  40.49394  38.65357  40.49394  38.66631  41.58278  45.16631  41.58278
      16  41.92267  42.12766         24.38020   0.000000  45.16631  41.58278  38.66631  41.58278  38.67901  42.67253  45.17901  42.67253
      16  41.93534  43.21786         24.40053   0.000000  45.17901  42.67253  38.67901  42.67253  38.69166  43.76319  45.19166  43.76319
      16  41.94797  44.30897         24.42087   0.000000  45.19166  43.76319  38.69166  43.76319  38.70427  44.85475  45.20427  44.85475
      16  41.96055  45.40099         24.44123   0.000000  45.20427  44.85475  38.70427  44.85475  38.71682  45.94723  45.21682  45.94723
      16  41.97307  46.49392         24.46160   0.000000  45.21682  45.94723  38.71682  45.94723  38.72931  47.04062  45.22931  47.04062
      16  41.98553  47.58777         24.48200   0.000000  45.22931  47.04062  38.72931  47.04062  38.74174  48.13492  45.24174  48.13492
      16  41.99793  48.68252         24.50241   0.000000  45.24174  48.13492  38.74174  48.13492  38.75410  49.23013  45.25410  49.23013
      16  42.01026  49.77819         24.52283   0.000000  45.25410  49.23013  38.75410  49.23013  38.76639  50.32625  45.26639  50.32625
      16  42.02251  50.87477         24.54328   0.000000  45.26639  50.32625  38.76639  50.32625  38.77861  51.42329  45.27861  51.42329
      16  42.03469  51.97226         24.56374   0.000000  45.27861  51.42329  38.77861  51.42329  38.79075  52.52124  45.29075  52.52124
      16  42.04679  53.07067         24.58422   0.000000  45.29075  52.52124  38.79075  52.52124  38.80280  53.62011  45.30280  53.62011
      16  42.05879  54.17000         24.60471   0.000000  45.30280  53.62011  38.80280  53.62011  38.81476  54.71989  45.31476  54.71989
      16  42.07071  55.27024         24.62523   0.000000  45.31476  54.71989  38.81476  54.71989  38.82663  55.82059  45.32663  55.82059
      16  42.08253  56.37140         24.64576   0.000000  45.32663  55.82059  38.82663  55.82059  38.83840  56.92221  45.33840  56.92221
      16  42.09425  57.47348         24.66630   0.000000  45.33840  56.92221  38.83840  56.92221  38.85007  58.02475  45.35007  58.02475
      16  42.10587  58.57647         24.68687   0.000000  45.35007  58.02475  38.85007  58.02475  38.86163  59.12820  45.36163  59.12820
      16  42.11737  59.68039         24.70745   0.000000  45.36163  59.12820  38.86163  59.12820  38.87308  60.23258  45.37308  60.23258
      16  42.12877  60.78522         24.72805   0.000000  45.37308  60.23258  38.87308  60.23258  38.88442  61.33787  45.38442  61.33787
      16  42.14004  61.89098         24.74866   0.000000  45.38442  61.33787  38.88442  61.33787  38.89563  62.44409  45.39563  62.44409
      16  42.15119  62.99766         24.76929   0.000000  45.39563  62.44409  38.89563  62.44409  38.90671  63.55123  45.40671  63.55123
      16  42.16221  64.10526         24.78994   0.000000  45.40671  63.55123  38.90671  63.55123  38.91767  64.65929  45.41767  64.65929
      16  42.17310  65.21379         24.81061   0.000000  45.41767  64.65929  38.91767  64.65929  38.92849  65.76828  45.42849  65.76828
      16  42.18384  66.32323         24.83129   0.000000  45.42849  65.76828  38.92849  65.76828  38.93917  66.87819  45.43917  66.87819
      16  42.19445  67.43361         24.85199   0.000000  45.43917  66.87819  38.93917  66.87819  38.94970  67.98903  45.44970  67.98903
      16  42.20491  68.54491         24.87271   0.000000  45.44970  67.98903  38.94970  67.98903  38.96008  69.10079  45.46008  69.10079
      16  42.21522  69.65713         24.89345   0.000000  45.46008  69.10079  38.96008  69.10079  38.97031  70.21348  45.47031  70.21348
      16  42.22537  70.77029         24.91420   0.000000  45.47031  70.21348  38.97031  70.21348  38.98038  71.32710  45.48038  71.32710
      16  42.23536  71.88437         24.93497   0.000000  45.48038  71.32710  38.98038  71.32710  38.99029  72.44164  45.49029  72.44164
      16  42.24518  72.99938         24.95576   0.000000  45.49029  72.44164  38.99029  72.44164  39.00003  73.55712  45.50003  73.55712
      16  42.25483  74.11532         24.97657   0.000000  45.50003  73.55712  39.00003  73.55712  39.00959  74.67352  45.50959  74.67352
      16  42.26431  75.23219         24.99739   0.000000  45.50959  74.67352  39.00959  74.67352  39.01898  75.79085  45.51898  75.79085
      16  42.27360  76.34999         25.01823   0.000000  45.51898  75.79085  39.01898  75.79085  39.02817  76.90912  45.52817  76.90912
      16  42.28271  77.46872         25.03909   0.000000  45.52817  76.90912  39.02817  76.90912  39.03719  78.02832  45.53719  78.02832
      16  42.29162  78.58839         25.05996   0.000000  45.53719  78.02832  39.03719  78.02832  39.04600  79.14845  45.54600  79.14845
      16  42.30034  79.70899         25.08085   0.000000  45.54600  79.14845  39.04600  79.14845  39.05462  80.26952  45.55462  80.26952
      16  42.30885  80.83052         25.10176   0.000000  45.55462  80.26952  39.05462  80.26952  39.06303  81.39152  45.56303  81.39152
      16  42.31716  81.95299         25.12269   0.000000  45.56303  81.39152  39.06303  81.39152  39.07124  82.51446  45.57124  82.51446
      16  42.32526  83.07639         25.14363   0.000000  45.57124  82.51446  39.07124  82.51446  39.07923  83.63833  45.57923  83.63833
      16  42.33314  84.20073         25.16459   0.000000  45.57923  83.63833  39.07923  83.63833  39.08700  84.76314  45.58700  84.76314
      16  42.34080  85.32601         25.18557   0.000000  45.58700  84.76314  39.08700  84.76314  39.09455  85.88888  45.59455  85.88888
      16  42.34824  86.45223         25.20657   0.000000  45.59455  85.88888  39.09455  85.88888  39.10186  87.01557  45.60186  87.01557
      16  42.35544  87.57938         25.22758   0.000000  45.60186  87.01557  39.10186  87.01557  39.10895  88.14319  45.60895  88.14319
      16  42.36240  88.70748         25.24862   0.000000  45.60895  88.14319  39.10895  88.14319  39.11579  89.27176  45.61579  89.27176
      16  42.36912  89.83651         25.26967   0.000000  45.61579  89.27176  39.11579  89.27176  39.12238  90.40126  45.62238  90.40126
      16  42.37559  90.96649         25.29073   0.000000  45.62238  90.40126  39.12238  90.40126  39.12873  91.53171  45.62873  91.53171
      16  42.38181  92.09741         25.31182   0.000000  45.62873  91.53171  39.12873  91.53171  39.13482  92.66310  45.63482  92.66310
      16  42.38777  93.22927         25.33292   0.000000  45.63482  92.66310  39.13482  92.66310  39.14065  93.79543  45.64065  93.79543
      16  42.39346  94.36207         25.35404   0.000000  45.64065  93.79543  39.14065  93.79543  39.14621  94.92871  45.64621  94.92871
      16  42.39889  95.49582         25.37518   0.000000  45.64621  94.92871  39.14621  94.92871  39.15150  96.06293  45.65150  96.06293
      16  42.40404  96.63051         25.39633   0.000000  45.65150  96.06293  39.15150  96.06293  39.15651  97.19810  45.65651  97.19810
      16  42.40891  97.76616         25.41750   0.000000  45.65651  97.19810  39.15651  97.19810  39.16124  98.33421  45.66124  98.33421
      16  42.41350  98.90274         25.43869   0.000000  45.66124  98.33421  39.16124  98.33421  39.16568  99.47127  45.66568  99.47127
      16  42.41779 100.04028         25.45990   0.000000  45.66568  99.47127  39.16568  99.47127  39.16983 100.60928  45.66983 100.60928
      16  42.42179 101.17876         25.48113   0.000000  45.66983 100.60928  39.16983 100.60928  39.17367 101.74824  45.67367 101.74824
      16  42.42548 102.31819         25.50237   0.000000  45.67367 101.74824  39.17367 101.74824  39.17722 102.88815  45.67722 102.88815
      16  42.42887 103.45857         25.52363   0.000000  45.67722 102.88815  39.17722 102.88815  39.18045 104.02900  45.68045 104.02900
      16  42.43195 104.59991         25.54491   0.000000  45.68045 104.02900  39.18045 104.02900  39.18337 105.17081  45.68337 105.17081
      16  42.43470 105.74219         25.56620   0.000000  45.68337 105.17081  39.18337 105.17081  39.18596 106.31357  45.68596 106.31357
      16  42.43714 106.88543         25.58752   0.000000  45.68596 106.31357  39.18596 106.31357  39.18823 107.45729  45.68823 107.45729
      16  42.43924 108.02962         25.60885   0.000000  45.68823 107.45729  39.18823 107.45729  39.19016 108.60195  45.69016 108.60195
      16  42.44101 109.17476         25.63020   0.000000  45.69016 108.60195  39.19016 108.60195  39.19176 109.74757  45.69176 109.74757
      16  42.44243 110.32086         25.65157   0.000000  45.69176 109.74757  39.19176 109.74757  39.19301 110.89415  45.69301 110.89415
      16  42.44351 111.46792         25.67295   0.000000  45.69301 110.89415  39.19301 110.89415  39.19392 112.04168  45.69392 112.04168
      16  42.44423 112.61593         25.69436   0.000000  45.69392 112.04168  39.19392 112.04168  39.19446 113.19017  45.69446 113.19017
      16  42.44460 113.76489         25.71578   0.000000  45.69446 113.19017  39.19446 113.19017  39.19465 114.33962  45.69465 114.33962
      16  42.44460 114.91482         25.73722   0.000000  45.69465 114.33962  39.19465 114.33962  39.19447 115.49002  45.69447 115.49002
      16  42.44424 116.06570         25.75867   0.000000  45.69447 115.49002  39.19447 115.49002  39.19391 116.64138  45.69391 116.64138
      16  42.44349 117.21755         25.78015   0.000000  45.69391 116.64138  39.19391 116.64138  39.19298 117.79371  45.69298 117.79371
      16  42.44237 118.37035         25.80164   0.000000  45.69298 117.79371  39.19298 117.79371  39.19166 118.94699  45.69166 118.94699
      16  42.44085 119.52411         25.82315   0.000000  45.69166 118.94699  39.19166 118.94699  39.18995 120.10124  45.68995 120.10124
      16  42.43895 120.67884         25.84468   0.000000  45.68995 120.10124  39.18995 120.10124  39.18784 121.25644  45.68784 121.25644
      16  42.43664 121.83453         25.86622   0.000000  45.68784 121.25644  39.18784 121.25644  39.18533 122.41262  45.68533 122.41262
      16  42.43393 122.99118         25.88779   0.000000  45.68533 122.41262  39.18533 122.41262  39.18242 123.56975  45.68242 123.56975
      16  42.43080 124.14880         25.90937   0.000000  45.68242 123.56975  39.18242 123.56975  39.17909 124.72785  45.67909 124.72785
      16  42.42726 125.30738         25.93097   0.000000  45.67909 124.72785  39.17909 124.72785  39.17533 125.88691  45.67533 125.88691
      16  42.42330 126.46693         25.95259   0.000000  45.67533 125.88691  39.17533 125.88691  39.17115 127.04695  45.67115 127.04695
      16  42.41890 127.62745         25.97422   0.000000  45.67115 127.04695  39.17115 127.04695  39.16654 128.20794  45.66654 128.20794
      15  52.71892   1.28447         25.16459   0.000000  55.95421   0.75661  49.45421   0.75661  49.48349   1.81232  55.98349   1.81232
      15  52.74794   2.34062         25.18557   0.000000  55.98349   1.81232  49.48349   1.81232  49.51226   2.86891  56.01226   2.86891
      15  52.77646   3.39765         25.20657   0.000000  56.01226   2.86891  49.51226   2.86891  49.54053   3.92639  56.04053   3.92639
      15  52.80449   4.45556         25.22758   0.000000  56.04053   3.92639  49.54053   3.92639  49.56831   4.98474  56.06831   4.98474
      15  52.83202   5.51436         25.24862   0.000000  56.06831   4.98474  49.56831   4.98474  49.59561   6.04398  56.09561   6.04398
      15  52.85908   6.57404         25.26967   0.000000  56.09561   6.04398  49.59561   6.04398  49.62243   7.10410  56.12243   7.10410
      15  52.88566   7.63460         25.29073   0.000000  56.12243   7.10410  49.62243   7.10410  49.64877   8.16510  56.14877   8.16510
      15  52.91178   8.69604         25.31182   0.000000  56.14877   8.16510  49.64877   8.16510  49.67466   9.22699  56.17466   9.22699
      15  52.93744   9.75837         25.33292   0.000000  56.17466   9.22699  49.67466   9.22699  49.70009  10.28976  56.20009  10.28976
      15  52.96265  10.82159         25.35404   0.000000  56.20009  10.28976  49.70009  10.28976  49.72508  11.35342  56.22508  11.35342
      15  52.98741  11.88569         25.37518   0.000000  56.22508  11.35342  49.72508  11.35342  49.74963  12.41797  56.24963  12.41797
      15  53.01175  12.95068         25.39633   0.000000  56.24963  12.41797  49.74963  12.41797  49.77375  13.48340  56.27375  13.48340
      15  53.03565  14.01656         25.41750   0.000000  56.27375  13.48340  49.77375  13.48340  49.79744  14.54972  56.29744  14.54972
      15  53.05914  15.08333         25.43869   0.000000  56.29744  14.54972  49.79744  14.54972  49.82073  15.61693  56.32073  15.61693
      15  53.08222  16.15098         25.45990   0.000000  56.32073  15.61693  49.82073  15.61693  49.84360  16.68503  56.34360  16.68503
      15  53.10489  17.21953         25.48113   0.000000  56.34360  16.68503  49.84360  16.68503  49.86608  17.75402  56.36608  17.75402
      15  53.12717  18.28897         25.50237   0.000000  56.36608  17.75402  49.86608  17.75402  49.88816  18.82391  56.38816  18.82391
      15  53.14906  19.35929         25.52363   0.000000  56.38816  18.82391  49.88816  18.82391  49.90987  19.89468  56.40987  19.89468
      15  53.17058  20.43051         25.54491   0.000000  56.40987  19.89468  49.90987  19.89468  49.93120  20.96635  56.43120  20.96635
      15  53.19172  21.50263         25.56620   0.000000  56.43120  20.96635  49.93120  20.96635  49.95216  22.03891  56.45216  22.03891
      15  53.21251  22.57564         25.58752   0.000000  56.45216  22.03891  49.95216  22.03891  49.97277  23.11236  56.47277  23.11236
      15  53.23294  23.64954         25.60885   0.000000  56.47277  23.11236  49.97277  23.11236  49.99302  24.18671  56.49302  24.18671
      15  53.25302  24.72433         25.63020   0.000000  56.49302  24.18671  49.99302  24.18671  50.01294  25.26196  56.51294  25.26196
      15  53.27277  25.80003         25.65157   0.000000  56.51294  25.26196  50.01294  25.26196  50.03252  26.33810  56.53252  26.33810
      15  53.29219  26.87662         25.67295   0.000000  56.53252  26.33810  50.03252  26.33810  50.05178  27.41514  56.55178  27.41514
      15  53.31129  27.95411         25.69436   0.000000  56.55178  27.41514  50.05178  27.41514  50.07073  28.49307  56.57073  28.49307
      15  53.33008  29.03249         25.71578   0.000000  56.57073  28.49307  50.07073  28.49307  50.08936  29.57191  56.58936  29.57191
      15  53.34857  30.11178         25.73722   0.000000  56.58936  29.57191  50.08936  29.57191  50.10770  30.65164  56.60770  30.65164
      15  53.36676  31.19196         25.75867   0.000000  56.60770  30.65164  50.10770  30.65164  50.12575  31.73228  56.62575  31.73228
      15  53.38467  32.27305         25.78015   0.000000  56.62575  31.73228  50.12575  31.73228  50.14352  32.81381  56.64352  32.81381
      15  53.40230  33.35503         25.80164   0.000000  56.64352  32.81381  50.14352  32.81381  50.16101  33.89625  56.66101  33.89625
      15  53.41967  34.43792         25.82315   0.000000  56.66101  33.89625  50.16101  33.89625  50.17825  34.97959  56.67825  34.97959
      15  53.43677  35.52171         25.84468   0.000000  56.67825  34.97959  50.17825  34.97959  50.19522  36.06383  56.69522  36.06383
      15  53.45362  36.60641         25.86622   0.000000  56.69522  36.06383  50.19522  36.06383  50.21196  37.14898  56.71196  37.14898
      15  53.47023  37.69201         25.88779   0.000000  56.71196  37.14898  50.21196  37.14898  50.22845  38.23503  56.72845  38.23503
      15  53.48661  38.77851         25.90937   0.000000  56.72845  38.23503  50.22845  38.23503  50.24472  39.32199  56.74472  39.32199
      15  53.50277  39.86592         25.93097   0.000000  56.74472  39.32199  50.24472  39.32199  50.26076  40.40985  56.76076  40.40985
      15  53.51871  40.95424         25.95259   0.000000  56.76076  40.40985  50.26076  40.40985  50.27660  41.49862  56.77660  41.49862
      15  53.53445  42.04346         25.97422   0.000000  56.77660  41.49862  50.27660  41.49862  50.29224  42.58830  56.79224  42.58830
      15  53.54998  43.13359         25.99588   0.000000  56.79224  42.58830  50.29224  42.58830  50.30768  43.67889  56.80768  43.67889
      15  53.56534  44.22463         26.01755   0.000000  56.80768  43.67889  50.30768  43.67889  50.32294  44.77038  56.82294  44.77038
      15  53.58051  45.31659         26.03924   0.000000  56.82294  44.77038  50.32294  44.77038  50.33803  45.86279  56.83803  45.86279
      15  53.59552  46.40945         26.06095   0.000000  56.83803  45.86279  50.33803  45.86279  50.35296  46.95610  56.85296  46.95610
      15  53.61036  47.50322         26.08268   0.000000  56.85296  46.95610  50.35296  46.95610  50.36773  48.05033  56.86773  48.05033
      15  53.62506  48.59790         26.10442   0.000000  56.86773  48.05033  50.36773  48.05033  50.38235  49.14547  56.88235  49.14547
      15  53.63961  49.69350         26.12618   0.000000  56.88235  49.14547  50.38235  49.14547  50.39684  50.24152  56.89684  50.24152
      15  53.65404  50.79001         26.14796   0.000000  56.89684  50.24152  50.39684  50.24152  50.41120  51.33849  56.91120  51.33849
      15  53.66834  51.88743         26.16976   0.000000  56.91120  51.33849  50.41120  51.33849  50.42545  52.43637  56.92545  52.43637
      15  53.68253  52.98577         26.19158   0.000000  56.92545  52.43637  50.42545  52.43637  50.43959  53.53517  56.93959  53.53517
      15  53.69662  54.08502         26.21342   0.000000  56.93959  53.53517  50.43959  53.53517  50.45363  54.63488  56.95363  54.63488
      15  53.71061  55.18520         26.23527   0.000000  56.95363  54.63488  50.45363  54.63488  50.46758  55.73551  56.96758  55.73551
      15  53.72453  56.28628         26.25714   0.000000  56.96758  55.73551  50.46758  55.73551  50.48145  56.83706  56.98145  56.83706
      15  53.73836  57.38829         26.27903   0.000000  56.98145  56.83706  50.48145  56.83706  50.49526  57.93952  56.99526  57.93952
      15  53.75214  58.49121         26.30094   0.000000  56.99526  57.93952  50.49526  57.93952  50.50900  59.04291  57.00900  59.04291
      15  53.76586  59.59506         26.32287   0.000000  57.00900  59.04291  50.50900  59.04291  50.52270  60.14721  57.02270  60.14721
      15  53.77954  60.69982         26.34481   0.000000  57.02270  60.14721  50.52270  60.14721  50.53636  61.25244  57.03636  61.25244
      15  53.79318  61.80551         26.36678   0.000000  57.03636  61.25244  50.53636  61.25244  50.54999  62.35858  57.04999  62.35858
      15  53.80680  62.91212         26.38876   0.000000  57.04999  62.35858  50.54999  62.35858  50.56360  63.46565  57.06360  63.46565
      15  53.82040  64.01965         26.41076   0.000000  57.06360  63.46565  50.56360  63.46565  50.57720  64.57364  57.07720  64.57364
      15  53.83400  65.12810         26.43277   0.000000  57.07720  64.57364  50.57720  64.57364  50.59081  65.68256  57.09081  65.68256
      15  53.84761  66.23748         26.45481   0.000000  57.09081  65.68256  50.59081  65.68256  50.60442  66.79240  57.10442  66.79240
      15  53.86124  67.34778         26.47687   0.000000  57.10442  66.79240  50.60442  66.79240  50.61806  67.90316  57.11806  67.90316
      15  53.87489  68.45901         26.49894   0.000000  57.11806  67.90316  50.61806  67.90316  50.63172  69.01485  57.13172  69.01485
      15  53.88857  69.57116         26.52103   0.000000  57.13172  69.01485  50.63172  69.01485  50.64543  70.12747  57.14543  70.12747
      15  53.90231  70.68424         26.54314   0.000000  57.14543  70.12747  50.64543  70.12747  50.65920  71.24101  57.15920  71.24101
      15  53.91610  71.79825         26.56527   0.000000  57.15920  71.24101  50.65920  71.24101  50.67302  72.35549  57.17302  72.35549
      15  53.92996  72.91319         26.58742   0.000000  57.17302  72.35549  50.67302  72.35549  50.68692  73.47089  57.18692  73.47089
      15  53.94390  74.02906         26.60958   0.000000  57.18692  73.47089  50.68692  73.47089  50.70091  74.58722  57.20091  74.58722
      15  53.95793  75.14585         26.63177   0.000000  57.20091  74.58722  50.70091  74.58722  50.71498  75.70449  57.21498  75.70449
      15  53.97206  76.26358         26.65397   0.000000  57.21498  75.70449  50.71498  75.70449  50.72917  76.82268  57.22917  76.82268
      15  53.98630  77.38224         26.67619   0.000000  57.22917  76.82268  50.72917  76.82268  50.74347  77.94181  57.24347  77.94181
      15  54.00066  78.50184         26.69843   0.000000  57.24347  77.94181  50.74347  77.94181  50.75789  79.06187  57.25789  79.06187
      15  54.01516  79.62236         26.72069   0.000000  57.25789  79.06187  50.75789  79.06187  50.77246  80.18286  57.27246  80.18286
      15  54.02979  80.74382         26.74296   0.000000  57.27246  80.18286  50.77246  80.18286  50.78717  81.30479  57.28717  81.30479
      15  54.04458  81.86622         26.76526   0.000000  57.28717  81.30479  50.78717  81.30479  50.80204  82.42765  57.30204  82.42765
      15  54.05954  82.98955         26.78757   0.000000  57.30204  82.42765  50.80204  82.42765  50.81708  83.55145  57.31708  83.55145
      15  54.07467  84.11382         26.80990   0.000000  57.31708  83.55145  50.81708  83.55145  50.83230  84.67619  57.33230  84.67619
      15  54.08999  85.23902         26.83225   0.000000  57.33230  84.67619  50.83230  84.67619  50.84772  85.80186  57.34772  85.80186
      15  54.10550  86.36517         26.85462   0.000000  57.34772  85.80186  50.84772  85.80186  50.86333  86.92847  57.36333  86.92847
      15  54.12122  87.49225         26.87701   0.000000  57.36333  86.92847  50.86333  86.92847  50.87917  88.05603  57.37917  88.05603
      15  54.13717  88.62027         26.89942   0.000000  57.37917  88.05603  50.87917  88.05603  50.89522  89.18452  57.39522  89.18452
      15  54.15334  89.74923         26.92184   0.000000  57.39522  89.18452  50.89522  89.18452  50.91152  90.31395  57.41152  90.31395
      15  54.16976  90.87914         26.94429   0.000000  57.41152  90.31395  50.91152  90.31395  50.92806  91.44432  57.42806  91.44432
      15  54.18643  92.00998         26.96675   0.000000  57.42806  91.44432  50.92806  91.44432  50.94487  92.57564  57.44487  92.57564
      15  54.20337  93.14177         26.98923   0.000000  57.44487  92.57564  50.94487  92.57564  50.96194  93.70790  57.46194  93.70790
      15  54.22059  94.27450         27.01173   0.000000  57.46194  93.70790  50.96194  93.70790  50.97930  94.84110  57.47930  94.84110
      15  54.23809  95.40818         27.03425   0.000000  57.47930  94.84110  50.97930  94.84110  50.99695  95.97525  57.49695  95.97525
      15  54.25589  96.54280         27.05679   0.000000  57.49695  95.97525  50.99695  95.97525  51.01491  97.11035  57.51491  97.11035
      15  54.27401  97.67837         27.07935   0.000000  57.51491  97.11035  51.01491  97.11035  51.03318  98.24639  57.53318  98.24639
      15  54.29244  98.81488         27.10192   0.000000  57.53318  98.24639  51.03318  98.24639  51.05179  99.38337  57.55179  99.38337
      15  54.31122  99.95234         27.12452   0.000000  57.55179  99.38337  51.05179  99.38337  51.07073 100.52131  57.57073 100.52131
      15  54.33034 101.09075         27.14713   0.000000  57.57073 100.52131  51.07073 100.52131  51.09003 101.66019  57.59003 101.66019
      15  54.34982 102.23011         27.16976   0.000000  57.59003 101.66019  51.09003 101.66019  51.10969 102.80003  57.60969 102.80003
      15  54.36967 103.37042         27.19241   0.000000  57.60969 102.80003  51.10969 102.80003  51.12973 103.94081  57.62973 103.94081
      15  54.38990 104.51168         27.21508   0.000000  57.62973 103.94081  51.12973 103.94081  51.15016 105.08254  57.65016 105.08254
      15  54.41053 105.65389         27.23777   0.000000  57.65016 105.08254  51.15016 105.08254  51.17099 106.22523  57.67099 106.22523
      15  54.43156 106.79705         27.26048   0.000000  57.67099 106.22523  51.17099 106.22523  51.19223 107.36887  57.69223 107.36887
      15  54.45301 107.94116         27.28321   0.000000  57.69223 107.36887  51.19223 107.36887  51.21390 108.51346  57.71390 108.51346
      15  54.47490 109.08623         27.30595   0.000000  57.71390 108.51346  51.21390 108.51346  51.23600 109.65901  57.73600 109.65901
      15  54.49723 110.23226         27.32872   0.000000  57.73600 109.65901  51.23600 109.65901  51.25856 110.80551  57.75856 110.80551
      15  54.52001 111.37924         27.35150   0.000000  57.75856 110.80551  51.25856 110.80551  51.28157 111.95297  57.78157 111.95297
      15  54.54326 112.52717         27.37430   0.000000  57.78157 111.95297  51.28157 111.95297  51.30506 113.10138  57.80506 113.10138
      15  54.56699 113.67607         27.39712   0.000000  57.80506 113.10138  51.30506 113.10138  51.32904 114.25075  57.82904 114.25075
      15  54.59122 114.82592         27.41996   0.000000  57.82904 114.25075  51.32904 114.25075  51.35352 115.40108  57.85352 115.40108
      15  54.61595 115.97673         27.44282   0.000000  57.85352 115.40108  51.35352 115.40108  51.37851 116.55237  57.87851 116.55237
      15  54.64120 117.12849         27.46570   0.000000  57.87851 116.55237  51.37851 116.55237  51.40402 117.70462  57.90402 117.70462
      15  54.66698 118.28122         27.48860   0.000000  57.90402 117.70462  51.40402 117.70462  51.43007 118.85783  57.93007 118.85783
      15  54.69330 119.43491         27.51152   0.000000  57.93007 118.85783  51.43007 118.85783  51.45667 120.01200  57.95667 120.01200
      15  54.72018 120.58956         27.53445   0.000000  57.95667 120.01200  51.45667 120.01200  51.48383 121.16713  57.98383 121.16713
      15  54.74763 121.74518         27.55741   0.000000  57.98383 121.16713  51.48383 121.16713  51.51157 122.32323  58.01157 122.32323
      15  54.77566 122.90176         27.58038   0.000000  58.01157 122.32323  51.51157 122.32323  51.53990 123.48029  58.03990 123.48029
      15  54.80429 124.05930         27.60337   0.000000  58.03990 123.48029  51.53990 123.48029  51.56883 124.63831  58.06883 124.63831
      15  54.83353 125.21780         27.62639   0.000000  58.06883 124.63831  51.56883 124.63831  51.59837 125.79730  58.09837 125.79730
      15  54.86338 126.37728         27.64942   0.000000  58.09837 125.79730  51.59837 125.79730  51.62855 126.95726  58.12855 126.95726
      15  54.89388 127.53772         27.67247   0.000000  58.12855 126.95726  51.62855 126.95726  51.65936 128.11818  58.15936 128.11818
      14  65.27071   1.04404         26.92184   0.000000  68.50300   0.51628  62.00300   0.51628  62.03836   1.57179  68.53836   1.57179
      14  65.30597   2.09999         26.94429   0.000000  68.53836   1.57179  62.03836   1.57179  62.07354   2.62819  68.57354   2.62819
      14  65.34106   3.15682         26.96675   0.000000  68.57354   2.62819  62.07354   2.62819  62.10853   3.68546  68.60853   3.68546
      14  65.37597   4.21453         26.98923   0.000000  68.60853   3.68546  62.10853   3.68546  62.14335   4.74361  68.64335   4.74361
      14  65.41069   5.27313         27.01173   0.000000  68.64335   4.74361  62.14335   4.74361  62.17799   5.80264  68.67799   5.80264
      14  65.44524   6.33260         27.03425   0.000000  68.67799   5.80264  62.17799   5.80264  62.21245   6.86256  68.71245   6.86256
      14  65.47962   7.39296         27.05679   0.000000  68.71245   6.86256  62.21245   6.86256  62.24673   7.92336  68.74673   7.92336
      14  65.51381   8.45421         27.07935   0.000000  68.74673   7.92336  62.24673   7.92336  62.28084   8.98505  68.78084   8.98505
      14  65.54784   9.51634         27.10192   0.000000  68.78084   8.98505  62.28084   8.98505  62.31478  10.04762  68.81478  10.04762
      14  65.58169  10.57935         27.12452   0.000000  68.81478  10.04762  62.31478  10.04762  62.34854  11.11108  68.84854  11.11108
      14  65.61536  11.64325         27.14713   0.000000  68.84854  11.11108  62.34854  11.11108  62.38213  12.17542  68.88213  12.17542
      14  65.64887  12.70804         27.16976   0.000000  68.88213  12.17542  62.38213  12.17542  62.41556  13.24065  68.91556  13.24065
      14  65.68221  13.77371         27.19241   0.000000  68.91556  13.24065  62.41556  13.24065  62.44881  14.30677  68.94881  14.30677
      14  65.71537  14.84028         27.21508   0.000000  68.94881  14.30677  62.44881  14.30677  62.48189  15.37378  68.98189  15.37378
      14  65.74837  15.90773         27.23777   0.000000  68.98189  15.37378  62.48189  15.37378  62.51480  16.44168  69.01480  16.44168
      14  65.78120  16.97607         27.26048   0.000000  69.01480  16.44168  62.51480  16.44168  62.54755  17.51046  69.04755  17.51046
      14  65.81387  18.04530         27.28321   0.000000  69.04755  17.51046  62.54755  17.51046  62.58014  18.58014  69.08014  18.58014
      14  65.84637  19.11543         27.30595   0.000000  69.08014  18.58014  62.58014  18.58014  62.61256  19.65071  69.11256  19.65071
      14  65.87871  20.18645         27.32872   0.000000  69.11256  19.65071  62.61256  19.65071  62.64481  20.72218  69.14481  20.72218
      14  65.91088  21.25836         27.35150   0.000000  69.14481  20.72218  62.64481  20.72218  62.67691  21.79453  69.17691  21.79453
      14  65.94290  22.33116         27.37430   0.000000  69.17691  21.79453  62.67691  21.79453  62.70884  22.86778  69.20884  22.86778
      14  65.97475  23.40486         27.39712   0.000000  69.20884  22.86778  62.70884  22.86778  62.74062  23.94193  69.24062  23.94193
      14  66.00645  24.47945         27.41996   0.000000  69.24062  23.94193  62.74062  23.94193  62.77223  25.01697  69.27223  25.01697
      14  66.03798  25.55494         27.44282   0.000000  69.27223  25.01697  62.77223  25.01697  62.80369  26.09291  69.30369  26.09291
      14  66.06936  26.63132         27.46570   0.000000  69.30369  26.09291  62.80369  26.09291  62.83499  27.16974  69.33499  27.16974
      14  66.10059  27.70861         27.48860   0.000000  69.33499  27.16974  62.83499  27.16974  62.86614  28.24747  69.36614  28.24747
      14  66.13166  28.78679         27.51152   0.000000  69.36614  28.24747  62.86614  28.24747  62.89713  29.32610  69.39713  29.32610
      14  66.16258  29.86587         27.53445   0.000000  69.39713  29.32610  62.89713  29.32610  62.92798  30.40563  69.42798  30.40563
      14  66.19334  30.94585         27.55741   0.000000  69.42798  30.40563  62.92798  30.40563  62.95867  31.48606  69.45867  31.48606
      14  66.22396  32.02673         27.58038   0.000000  69.45867  31.48606  62.95867  31.48606  62.98921  32.56739  69.48921  32.56739
      14  66.25442  33.10851         27.60337   0.000000  69.48921  32.56739  62.98921  32.56739  63.01960  33.64962  69.51960  33.64962
      14  66.28474  34.19119         27.62639   0.000000  69.51960  33.64962  63.01960  33.64962  63.04984  34.73276  69.54984  34.73276
      14  66.31491  35.27478         27.64942   0.000000  69.54984  34.73276  63.04984  34.73276  63.07994  35.81679  69.57994  35.81679
      14  66.34493  36.35926         27.67247   0.000000  69.57994  35.81679  63.07994  35.81679  63.10989  36.90173  69.60989  36.90173
      14  66.37481  37.44466         27.69554   0.000000  69.60989  36.90173  63.10989  36.90173  63.13969  37.98758  69.63969  37.98758
      14  66.40455  38.53095         27.71863   0.000000  69.63969  37.98758  63.13969  37.98758  63.16936  39.07433  69.66936  39.07433
      14  66.43414  39.61816         27.74174   0.000000  69.66936  39.07433  63.16936  39.07433  63.19888  40.16199  69.69888  40.16199
      14  66.46359  40.70627         27.76486   0.000000  69.69888  40.16199  63.19888  40.16199  63.22826  41.25055  69.72826  41.25055
      14  66.49290  41.79529         27.78801   0.000000  69.72826  41.25055  63.22826  41.25055  63.25751  42.34002  69.75751  42.34002
      14  66.52208  42.88521         27.81118   0.000000  69.75751  42.34002  63.25751  42.34002  63.28661  43.43040  69.78661  43.43040
      14  66.55112  43.97604         27.83436   0.000000  69.78661  43.43040  63.28661  43.43040  63.31558  44.52169  69.81558  44.52169
      14  66.58002  45.06779         27.85757   0.000000  69.81558  44.52169  63.31558  44.52169  63.34441  45.61389  69.84441  45.61389
      14  66.60878  46.16044         27.88079   0.000000  69.84441  45.61389  63.34441  45.61389  63.37311  46.70699  69.87311  46.70699
      14  66.63742  47.25400         27.90404   0.000000  69.87311  46.70699  63.37311  46.70699  63.40168  47.80101  69.90168  47.80101
      14  66.66592  48.34848         27.92730   0.000000  69.90168  47.80101  63.40168  47.80101  63.43012  48.89595  69.93012  48.89595
      14  66.69429  49.44387         27.95058   0.000000  69.93012  48.89595  63.43012  48.89595  63.45842  49.99179  69.95842  49.99179
      14  66.72253  50.54017         27.97388   0.000000  69.95842  49.99179  63.45842  49.99179  63.48660  51.08855  69.98660  51.08855
      14  66.75065  51.63739         27.99721   0.000000  69.98660  51.08855  63.48660  51.08855  63.51465  52.18622  70.01465  52.18622
      14  66.77863  52.73552         28.02055   0.000000  70.01465  52.18622  63.51465  52.18622  63.54258  53.28481  70.04258  53.28481
      14  66.80650  53.83456         28.04391   0.000000  70.04258  53.28481  63.54258  53.28481  63.57038  54.38431  70.07038  54.38431
      14  66.83423  54.93452         28.06729   0.000000  70.07038  54.38431  63.57038  54.38431  63.59805  55.48473  70.09805  55.48473
      14  66.86185  56.03540         28.09069   0.000000  70.09805  55.48473  63.59805  55.48473  63.62561  56.58607  70.12561  56.58607
      14  66.88934  57.13720         28.11410   0.000000  70.12561  56.58607  63.62561  56.58607  63.65304  57.68833  70.15304  57.68833
      14  66.91672  58.23991         28.13754   0.000000  70.15304  57.68833  63.65304  57.68833  63.68036  58.79150  70.18036  58.79150
      14  66.94397  59.34355         28.16100   0.000000  70.18036  58.79150  63.68036  58.79150  63.70756  59.89560  70.20756  59.89560
      14  66.97111  60.44810         28.18448   0.000000  70.20756  59.89560  63.70756  59.89560  63.73464  61.00061  70.23464  61.00061
      14  66.99814  61.55358         28.20797   0.000000  70.23464  61.00061  63.73464  61.00061  63.76160  62.10655  70.26160  62.10655
      14  67.02505  62.65998         28.23149   0.000000  70.26160  62.10655  63.76160  62.10655  63.78846  63.21341  70.28846  63.21341
      14  67.05184  63.76730         28.25503   0.000000  70.28846  63.21341  63.78846  63.21341  63.81520  64.32119  70.31520  64.32119
      14  67.07853  64.87554         28.27858   0.000000  70.31520  64.32119  63.81520  64.32119  63.84183  65.42989  70.34183  65.42989
      14  67.10510  65.98471         28.30216   0.000000  70.34183  65.42989  63.84183  65.42989  63.86835  66.53952  70.36835  66.53952
      14  67.13157  67.09480         28.32575   0.000000  70.36835  66.53952  63.86835  66.53952  63.89476  67.65007  70.39476  67.65007
      14  67.15793  68.20581         28.34937   0.000000  70.39476  67.65007  63.89476  67.65007  63.92107  68.76155  70.42107  68.76155
      14  67.18418  69.31776         28.37300   0.000000  70.42107  68.76155  63.92107  68.76155  63.94727  69.87396  70.44727  69.87396
      14  67.21033  70.43063         28.39666   0.000000  70.44727  69.87396  63.94727  69.87396  63.97337  70.98729  70.47337  70.98729
      14  67.23638  71.54443         28.42033   0.000000  70.47337  70.98729  63.97337  70.98729  63.99936  72.10156  70.49936  72.10156
      14  67.26233  72.65915         28.44402   0.000000  70.49936  72.10156  63.99936  72.10156  64.02526  73.21675  70.52526  73.21675
      14  67.28818  73.77481         28.46774   0.000000  70.52526  73.21675  64.02526  73.21675  64.05106  74.33287  70.55106  74.33287
      14  67.31392  74.89139         28.49147   0.000000  70.55106  74.33287  64.05106  74.33287  64.07676  75.44992  70.57676  75.44992
      14  67.33958  76.00891         28.51522   0.000000  70.57676  75.44992  64.07676  75.44992  64.10236  76.56790  70.60236  76.56790
      14  67.36513  77.12736         28.53899   0.000000  70.60236  76.56790  64.10236  76.56790  64.12787  77.68682  70.62787  77.68682
      14  67.39060  78.24674         28.56279   0.000000  70.62787  77.68682  64.12787  77.68682  64.15329  78.80666  70.65329  78.80666
      14  67.41597  79.36706         28.58660   0.000000  70.65329  78.80666  64.15329  78.80666  64.17862  79.92745  70.67862  79.92745
      14  67.44125  80.48830         28.61043   0.000000  70.67862  79.92745  64.17862  79.92745  64.20385  81.04916  70.70385  81.04916
      14  67.46644  81.61049         28.63428   0.000000  70.70385  81.04916  64.20385  81.04916  64.22900  82.17181  70.72900  82.17181
      14  67.49155  82.73360         28.65815   0.000000  70.72900  82.17181  64.22900  82.17181  64.25406  83.29540  70.75406  83.29540
      14  67.51656  83.85766         28.68205   0.000000  70.75406  83.29540  64.25406  83.29540  64.27904  84.41992  70.77904  84.41992
      14  67.54150  84.98265         28.70596   0.000000  70.77904  84.41992  64.27904  84.41992  64.30393  85.54538  70.80393  85.54538
      14  67.56635  86.10858         28.72989   0.000000  70.80393  85.54538  64.30393  85.54538  64.32874  86.67178  70.82874  86.67178
      14  67.59112  87.23545         28.75384   0.000000  70.82874  86.67178  64.32874  86.67178  64.35347  87.79912  70.85347  87.79912
      14  67.61581  88.36326         28.77781   0.000000  70.85347  87.79912  64.35347  87.79912  64.37813  88.92740  70.87813  88.92740
      14  67.64043  89.49201         28.80180   0.000000  70.87813  88.92740  64.37813  88.92740  64.40270  90.05662  70.90270  90.05662
      14  67.66496  90.62170         28.82582   0.000000  70.90270  90.05662  64.40270  90.05662  64.42720  91.18678  70.92720  91.18678
      14  67.68943  91.75233         28.84985   0.000000  70.92720  91.18678  64.42720  91.18678  64.45163  92.31788  70.95163  92.31788
      14  67.71382  92.88390         28.87390   0.000000  70.95163  92.31788  64.45163  92.31788  64.47598  93.44992  70.97598  93.44992
      14  67.73814  94.01642         28.89797   0.000000  70.97598  93.44992  64.47598  93.44992  64.50027  94.58291  71.00027  94.58291
      14  67.76238  95.14988         28.92206   0.000000  71.00027  94.58291  64.50027  94.58291  64.52448  95.71685  71.02448  95.71685
      14  67.78657  96.28429         28.94617   0.000000  71.02448  95.71685  64.52448  95.71685  64.54863  96.85172  71.04863  96.85172
      14  67.81068  97.41964         28.97031   0.000000  71.04863  96.85172  64.54863  96.85172  64.57271  97.98755  71.07271  97.98755
      14  67.83473  98.55594         28.99446   0.000000  71.07271  97.98755  64.57271  97.98755  64.59673  99.12432  71.09673  99.12432
      14  67.85872  99.69318         29.01863   0.000000  71.09673  99.12432  64.59673  99.12432  64.62069 100.26204  71.12069 100.26204
      14  67.88264 100.83138         29.04282   0.000000  71.12069 100.26204  64.62069 100.26204  64.64458 101.40071  71.14458 101.40071
      14  67.90651 101.97052         29.06703   0.000000  71.14458 101.40071  64.64458 101.40071  64.66842 102.54033  71.16842 102.54033
      14  67.93032 103.11061         29.09127   0.000000  71.16842 102.54033  64.66842 102.54033  64.69220 103.68089  71.19220 103.68089
      14  67.95407 104.25165         29.11552   0.000000  71.19220 103.68089  64.69220 103.68089  64.71593 104.82241  71.21593 104.82241
      14  67.97777 105.39365         29.13979   0.000000  71.21593 104.82241  64.71593 104.82241  64.73960 105.96488  71.23960 105.96488
      14  68.00142 106.53659         29.16409   0.000000  71.23960 105.96488  64.73960 105.96488  64.76322 107.10831  71.26322 107.10831
      14  68.02501 107.68049         29.18840   0.000000  71.26322 107.10831  64.76322 107.10831  64.78679 108.25268  71.28679 108.25268
      14  68.04856 108.82535         29.21273   0.000000  71.28679 108.25268  64.78679 108.25268  64.81031 109.39801  71.31031 109.39801
      14  68.07206 109.97115         29.23709   0.000000  71.31031 109.39801  64.81031 109.39801  64.83379 110.54430  71.33379 110.54430
      14  68.09551 111.11792         29.26146   0.000000  71.33379 110.54430  64.83379 110.54430  64.85722 111.69154  71.35722 111.69154
      14  68.11892 112.26563         29.28586   0.000000  71.35722 111.69154  64.85722 111.69154  64.88061 112.83973  71.38061 112.83973
      14  68.14229 113.41431         29.31027   0.000000  71.38061 112.83973  64.88061 112.83973  64.90395 113.98889  71.40395 113.98889
      14  68.16561 114.56394         29.33471   0.000000  71.40395 113.98889  64.90395 113.98889  64.92726 115.13900  71.42726 115.13900
      14  68.18890 115.71453         29.35916   0.000000  71.42726 115.13900  64.92726 115.13900  64.95053 116.29007  71.45053 116.29007
      14  68.21216 116.86608         29.38364   0.000000  71.45053 116.29007  64.95053 116.29007  64.97377 117.44210  71.47377 117.44210
      14  68.23537 118.01860         29.40814   0.000000  71.47377 117.44210  64.97377 117.44210  64.99697 118.59509  71.49697 118.59509
      14  68.25856 119.17207         29.43265   0.000000  71.49697 118.59509  64.99697 118.59509  65.02014 119.74904  71.52014 119.74904
      14  68.28171 120.32650         29.45719   0.000000  71.52014 119.74904  65.02014 119.74904  65.04328 120.90396  71.54328 120.90396
      14  68.30484 121.48190         29.48175   0.000000  71.54328 120.90396  65.04328 120.90396  65.06639 122.05983  71.56639 122.05983
      14  68.32794 122.63825         29.50633   0.000000  71.56639 122.05983  65.06639 122.05983  65.08948 123.21667  71.58948 123.21667
      14  68.35101 123.79558         29.53093   0.000000  71.58948 123.21667  65.08948 123.21667  65.11254 124.37448  71.61254 124.37448
      14  68.37406 124.95386         29.55554   0.000000  71.61254 124.37448  65.11254 124.37448  65.13558 125.53325  71.63558 125.53325
      14  68.39709 126.11312         29.58018   0.000000  71.63558 125.53325  65.13558 125.53325  65.15860 126.69299  71.65860 126.69299
      14  68.42010 127.27334         29.60485   0.000000  71.65860 126.69299  65.15860 126.69299  65.18160 127.85369  71.68160 127.85369
      13  79.82421   1.96427         28.97031   0.000000  83.05785   1.43613  76.55785   1.43613  76.59068   2.49241  83.09068   2.49241
      13  79.85730   3.02099         28.99446   0.000000  83.09068   2.49241  76.59068   2.49241  76.62404   3.54956  83.12404   3.54956
      13  79.89091   4.07859         29.01863   0.000000  83.12404   3.54956  76.62404   3.54956  76.65790   4.60761  83.15790   4.60761
      13  79.92503   5.13707         29.04282   0.000000  83.15790   4.60761  76.65790   4.60761  76.69228   5.66653  83.19228   5.66653
      13  79.95965   6.19643         29.06703   0.000000  83.19228   5.66653  76.69228   5.66653  76.72715   6.72633  83.22715   6.72633
      13  79.99477   7.25668         29.09127   0.000000  83.22715   6.72633  76.72715   6.72633  76.76251   7.78702  83.26251   7.78702
      13  80.03037   8.31781         29.11552   0.000000  83.26251   7.78702  76.76251   7.78702  76.79835   8.84860  83.29835   8.84860
      13  80.06645   9.37982         29.13979   0.000000  83.29835   8.84860  76.79835   8.84860  76.83466   9.91105  83.33466   9.91105
      13  80.10300  10.44273         29.16409   0.000000  83.33466   9.91105  76.83466   9.91105  76.87144  10.97440  83.37144  10.97440
      13  80.14000  11.50651         29.18840   0.000000  83.37144  10.97440  76.87144  10.97440  76.90867  12.03863  83.40867  12.03863
      13  80.17746  12.57119         29.21273   0.000000  83.40867  12.03863  76.90867  12.03863  76.94635  13.10375  83.44635  13.10375
      13  80.21536  13.63675         29.23709   0.000000  83.44635  13.10375  76.94635  13.10375  76.98447  14.16975  83.48447  14.16975
      13  80.25370  14.70320         29.26146   0.000000  83.48447  14.16975  76.98447  14.16975  77.02302  15.23665  83.52302  15.23665
      13  80.29245  15.77054         29.28586   0.000000  83.52302  15.23665  77.02302  15.23665  77.06199  16.30443  83.56199  16.30443
      13  80.33163  16.83877         29.31027   0.000000  83.56199  16.30443  77.06199  16.30443  77.10137  17.37310  83.60137  17.37310
      13  80.37121  17.90789         29.33471   0.000000  83.60137  17.37310  77.10137  17.37310  77.14115  18.44267  83.64115  18.44267
      13  80.41120  18.97790         29.35916   0.000000  83.64115  18.44267  77.14115  18.44267  77.18133  19.51313  83.68133  19.51313
      13  80.45157  20.04880         29.38364   0.000000  83.68133  19.51313  77.18133  19.51313  77.22189  20.58447  83.72189  20.58447
      13  80.49232  21.12060         29.40814   0.000000  83.72189  20.58447  77.22189  20.58447  77.26283  21.65672  83.76283  21.65672
      13  80.53345  22.19328         29.43265   0.000000  83.76283  21.65672  77.26283  21.65672  77.30414  22.72985  83.80414  22.72985
      13  80.57493  23.26687         29.45719   0.000000  83.80414  22.72985  77.30414  22.72985  77.34581  23.80388  83.84581  23.80388
      13  80.61677  24.34135         29.48175   0.000000  83.84581  23.80388  77.34581  23.80388  77.38782  24.87881  83.88782  24.87881
      13  80.65896  25.41672         29.50633   0.000000  83.88782  24.87881  77.38782  24.87881  77.43018  25.95463  83.93018  25.95463
      13  80.70148  26.49299         29.53093   0.000000  83.93018  25.95463  77.43018  25.95463  77.47286  27.03135  83.97286  27.03135
      13  80.74433  27.57016         29.55554   0.000000  83.97286  27.03135  77.47286  27.03135  77.51587  28.10897  84.01587  28.10897
      13  80.78750  28.64823         29.58018   0.000000  84.01587  28.10897  77.51587  28.10897  77.55919  29.18748  84.05919  29.18748
      13  80.83097  29.72719         29.60485   0.000000  84.05919  29.18748  77.55919  29.18748  77.60281  30.26690  84.10281  30.26690
      13  80.87474  30.80705         29.62953   0.000000  84.10281  30.26690  77.60281  30.26690  77.64673  31.34721  84.14673  31.34721
      13  80.91880  31.88782         29.65423   0.000000  84.14673  31.34721  77.64673  31.34721  77.69093  32.42843  84.19093  32.42843
      13  80.96314  32.96948         29.67895   0.000000  84.19093  32.42843  77.69093  32.42843  77.73540  33.51054  84.23540  33.51054
      13  81.00774  34.05205         29.70369   0.000000  84.23540  33.51054  77.73540  33.51054  77.78014  34.59356  84.28014  34.59356
      13  81.05261  35.13552         29.72846   0.000000  84.28014  34.59356  77.78014  34.59356  77.82514  35.67748  84.32514  35.67748
      13  81.09773  36.21989         29.75324   0.000000  84.32514  35.67748  77.82514  35.67748  77.87038  36.76231  84.37038  36.76231
      13  81.14309  37.30517         29.77804   0.000000  84.37038  36.76231  77.87038  36.76231  77.91585  37.84804  84.41585  37.84804
      13  81.18868  38.39135         29.80287   0.000000  84.41585  37.84804  77.91585  37.84804  77.96156  38.93467  84.46156  38.93467
      13  81.23450  39.47844         29.82772   0.000000  84.46156  38.93467  77.96156  38.93467  78.00748  40.02221  84.50748  40.02221
      13  81.28052  40.56643         29.85258   0.000000  84.50748  40.02221  78.00748  40.02221  78.05360  41.11066  84.55360  41.11066
      13  81.32675  41.65534         29.87747   0.000000  84.55360  41.11066  78.05360  41.11066  78.09993  42.20001  84.59993  42.20001
      13  81.37316  42.74514         29.90238   0.000000  84.59993  42.20001  78.09993  42.20001  78.14644  43.29028  84.64644  43.29028
      13  81.41976  43.83586         29.92731   0.000000  84.64644  43.29028  78.14644  43.29028  78.19312  44.38145  84.69312  44.38145
      13  81.46653  44.92749         29.95226   0.000000  84.69312  44.38145  78.19312  44.38145  78.23997  45.47353  84.73997  45.47353
      13  81.51347  46.02002         29.97723   0.000000  84.73997  45.47353  78.23997  45.47353  78.28698  46.56652  84.78698  46.56652
      13  81.56055  47.11347         30.00222   0.000000  84.78698  46.56652  78.28698  46.56652  78.33414  47.66042  84.83414  47.66042
      13  81.60777  48.20783         30.02723   0.000000  84.83414  47.66042  78.33414  47.66042  78.38143  48.75524  84.88143  48.75524
      13  81.65513  49.30310         30.05227   0.000000  84.88143  48.75524  78.38143  48.75524  78.42885  49.85096  84.92885  49.85096
      13  81.70261  50.39929         30.07732   0.000000  84.92885  49.85096  78.42885  49.85096  78.47638  50.94761  84.97638  50.94761
      13  81.75019  51.49638         30.10239   0.000000  84.97638  50.94761  78.47638  50.94761  78.52402  52.04516  85.02402  52.04516
      13  81.79788  52.59440         30.12749   0.000000  85.02402  52.04516  78.52402  52.04516  78.57175  53.14363  85.07175  53.14363
      13  81.84566  53.69332         30.15261   0.000000  85.07175  53.14363  78.57175  53.14363  78.61957  54.24302  85.11957  54.24302
      13  81.89351  54.79317         30.17774   0.000000  85.11957  54.24302  78.61957  54.24302  78.66746  55.34332  85.16746  55.34332
      13  81.94144  55.89393         30.20290   0.000000  85.16746  55.34332  78.66746  55.34332  78.71542  56.44454  85.21542  56.44454
      13  81.98942  56.99561         30.22808   0.000000  85.21542  56.44454  78.71542  56.44454  78.76342  57.54668  85.26342  57.54668
      13  82.03745  58.09821         30.25328   0.000000  85.26342  57.54668  78.76342  57.54668  78.81147  58.64974  85.31147  58.64974
      13  82.08551  59.20172         30.27850   0.000000  85.31147  58.64974  78.81147  58.64974  78.85955  59.75371  85.35955  59.75371
      13  82.13361  60.30616         30.30375   0.000000  85.35955  59.75371  78.85955  59.75371  78.90765  60.85861  85.40765  60.85861
      13  82.18171  61.41152         30.32901   0.000000  85.40765  60.85861  78.90765  60.85861  78.95576  61.96443  85.45576  61.96443
      13  82.22982  62.51780         30.35430   0.000000  85.45576  61.96443  78.95576  61.96443  79.00387  63.07117  85.50387  63.07117
      13  82.27793  63.62500         30.37960   0.000000  85.50387  63.07117  79.00387  63.07117  79.05197  64.17883  85.55197  64.17883
      13  82.32601  64.73312         30.40493   0.000000  85.55197  64.17883  79.05197  64.17883  79.10004  65.28741  85.60004  65.28741
      13  82.37407  65.84217         30.43028   0.000000  85.60004  65.28741  79.10004  65.28741  79.14808  66.39692  85.64808  66.39692
      13  82.42208  66.95214         30.45565   0.000000  85.64808  66.39692  79.14808  66.39692  79.19607  67.50736  85.69607  67.50736
      13  82.47005  68.06304         30.48104   0.000000  85.69607  67.50736  79.19607  67.50736  79.24400  68.61872  85.74400  68.61872
      13  82.51795  69.17486         30.50645   0.000000  85.74400  68.61872  79.24400  68.61872  79.29187  69.73101  85.79187  69.73101
      13  82.56578  70.28762         30.53188   0.000000  85.79187  69.73101  79.29187  69.73101  79.33966  70.84422  85.83966  70.84422
      13  82.61352  71.40129         30.55733   0.000000  85.83966  70.84422  79.33966  70.84422  79.38735  71.95837  85.88735  71.95837
      13  82.66117  72.51590         30.58281   0.000000  85.88735  71.95837  79.38735  71.95837  79.43495  73.07344  85.93495  73.07344
      13  82.70871  73.63144         30.60830   0.000000  85.93495  73.07344  79.43495  73.07344  79.48243  74.18944  85.98243  74.18944
      13  82.75613  74.74790         30.63382   0.000000  85.98243  74.18944  79.48243  74.18944  79.52979  75.30637  86.02979  75.30637
      13  82.80342  75.86530         30.65936   0.000000  86.02979  75.30637  79.52979  75.30637  79.57700  76.42423  86.07700  76.42423
      13  82.85056  76.98363         30.68492   0.000000  86.07700  76.42423  79.57700  76.42423  79.62408  77.54303  86.12408  77.54303
      13  82.89756  78.10289         30.71050   0.000000  86.12408  77.54303  79.62408  77.54303  79.67099  78.66275  86.17099  78.66275
      13  82.94438  79.22309         30.73611   0.000000  86.17099  78.66275  79.67099  78.66275  79.71773  79.78342  86.21773  79.78342
      13  82.99103  80.34421         30.76173   0.000000  86.21773  79.78342  79.71773  79.78342  79.76428  80.90501  86.26428  80.90501
      13  83.03749  81.46628         30.78738   0.000000  86.26428  80.90501  79.76428  80.90501  79.81064  82.02754  86.31064  82.02754
      13  83.08375  82.58927         30.81304   0.000000  86.31064  82.02754  79.81064  82.02754  79.85679  83.15101  86.35679  83.15101
      13  83.12979  83.71321         30.83873   0.000000  86.35679  83.15101  79.85679  83.15101  79.90273  84.27541  86.40273  84.27541
      13  83.17561  84.83808         30.86444   0.000000  86.40273  84.27541  79.90273  84.27541  79.94843  85.40075  86.44843  85.40075
      13  83.22119  85.96389         30.89017   0.000000  86.44843  85.40075  79.94843  85.40075  79.99389  86.52703  86.49389  86.52703
      13  83.26653  87.09064         30.91592   0.000000  86.49389  86.52703  79.99389  86.52703  80.03909  87.65425  86.53909  87.65425
      13  83.31160  88.21832         30.94170   0.000000  86.53909  87.65425  80.03909  87.65425  80.08403  88.78240  86.58403  88.78240
      13  83.35639  89.34695         30.96749   0.000000  86.58403  88.78240  80.08403  88.78240  80.12868  89.91150  86.62868  89.91150
      13  83.40090  90.47652         30.99331   0.000000  86.62868  89.91150  80.12868  89.91150  80.17304  91.04154  86.67304  91.04154
      13  83.44512  91.60703         31.01915   0.000000  86.67304  91.04154  80.17304  91.04154  80.21710  92.17252  86.71710  92.17252
      13  83.48902  92.73848         31.04501   0.000000  86.71710  92.17252  80.21710  92.17252  80.26084  93.30444  86.76084  93.30444
      13  83.53259  93.87088         31.07089   0.000000  86.76084  93.30444  80.26084  93.30444  80.30425  94.43731  86.80425  94.43731
      13  83.57583  95.00422         31.09679   0.000000  86.80425  94.43731  80.30425  94.43731  80.34732  95.57112  86.84732  95.57112
      13  83.61873  96.13850         31.12272   0.000000  86.84732  95.57112  80.34732  95.57112  80.39003  96.70588  86.89003  96.70588
      13  83.66126  97.27373         31.14866   0.000000  86.89003  96.70588  80.39003  96.70588  80.43238  97.84158  86.93238  97.84158
      13  83.70342  98.40991         31.17463   0.000000  86.93238  97.84158  80.43238  97.84158  80.47435  98.97823  86.97435  98.97823
      13  83.74519  99.54703         31.20062   0.000000  86.97435  98.97823  80.47435  98.97823  80.51592 100.11583  87.01592 100.11583
      13  83.78656 100.68510         31.22663   0.000000  87.01592 100.11583  80.51592 100.11583  80.55708 101.25438  87.05708 101.25438
      13  83.82751 101.82413         31.25267   0.000000  87.05708 101.25438  80.55708 101.25438  80.59783 102.39387  87.09783 102.39387
      13  83.86805 102.96410         31.27872   0.000000  87.09783 102.39387  80.59783 102.39387  80.63815 103.53432  87.13815 103.53432
      13  83.90814 104.10502         31.30480   0.000000  87.13815 103.53432  80.63815 103.53432  80.67801 104.67571  87.17801 104.67571
      13  83.94778 105.24689         31.33090   0.000000  87.17801 104.67571  80.67801 104.67571  80.71743 105.81806  87.21743 105.81806
      13  83.98696 106.38971         31.35702   0.000000  87.21743 105.81806  80.71743 105.81806  80.75637 106.96136  87.25637 106.96136
      13  84.02566 107.53349         31.38316   0.000000  87.25637 106.96136  80.75637 106.96136  80.79482 108.10562  87.29482 108.10562
      13  84.06387 108.67822         31.40932   0.000000  87.29482 108.10562  80.79482 108.10562  80.83278 109.25082  87.33278 109.25082
      13  84.10157 109.82390         31.43551   0.000000  87.33278 109.25082  80.83278 109.25082  80.87023 110.39698  87.37023 110.39698
      13  84.13876 110.97054         31.46171   0.000000  87.37023 110.39698  80.87023 110.39698  80.90715 111.54410  87.40715 111.54410
      13  84.17541 112.11814         31.48794   0.000000  87.40715 111.54410  80.90715 111.54410  80.94353 112.69218  87.44353 112.69218
      13  84.21152 113.26669         31.51419   0.000000  87.44353 112.69218  80.94353 112.69218  80.97936 113.84121  87.47936 113.84121
      13  84.24707 114.41620         31.54047   0.000000  87.47936 113.84121  80.97936 113.84121  81.01463 114.99119  87.51463 114.99119
      13  84.28205 115.56667         31.56676   0.000000  87.51463 114.99119  81.01463 114.99119  81.04932 116.14214  87.54932 116.14214
      13  84.31644 116.71810         31.59308   0.000000  87.54932 116.14214  81.04932 116.14214  81.08341 117.29405  87.58341 117.29405
      13  84.35024 117.87048         31.61942   0.000000  87.58341 117.29405  81.08341 117.29405  81.11690 118.44692  87.61690 118.44692
      13  84.38341 119.02383         31.64578   0.000000  87.61690 118.44692  81.11690 118.44692  81.14977 119.60075  87.64977 119.60075
      13  84.41597 120.17814         31.67216   0.000000  87.64977 119.60075  81.14977 119.60075  81.18200 120.75554  87.68200 120.75554
      13  84.44788 121.33341         31.69856   0.000000  87.68200 120.75554  81.18200 120.75554  81.21358 121.91129  87.71358 121.91129
      13  84.47913 122.48965         31.72499   0.000000  87.71358 121.91129  81.21358 121.91129  81.24450 123.06801  87.74450 123.06801
      13  84.50972 123.64685         31.75144   0.000000  87.74450 123.06801  81.24450 123.06801  81.27475 124.22569  87.77475 124.22569
      13  84.53962 124.80501         31.77791   0.000000  87.77475 124.22569  81.27475 124.22569  81.30430 125.38433  87.80430 125.38433
      13  84.56882 125.96414         31.80440   0.000000  87.80430 125.38433  81.30430 125.38433  81.33315 126.54394  87.83315 126.54394
      13  84.59731 127.12423         31.83092   0.000000  87.83315 126.54394  81.33315 126.54394  81.36128 127.70452  87.86128 127.70452
      12  96.33108   2.01656         31.33090   0.000000  99.54624   1.48840  93.04624   1.48840  93.11579   2.54472  99.61579   2.54472
      12  96.40040   3.07332         31.35702   0.000000  99.61579   2.54472  93.11579   2.54472  93.18488   3.60192  99.68488   3.60192
      12  96.46925   4.13096         31.38316   0.000000  99.68488   3.60192  93.18488   3.60192  93.25350   4.66001  99.75350   4.66001
      12  96.53764   5.18949         31.40932   0.000000  99.75350   4.66001  93.25350   4.66001  93.32166   5.71897  99.82166   5.71897
      12  96.60558   6.24890         31.43551   0.000000  99.82166   5.71897  93.32166   5.71897  93.38937   6.77882  99.88937   6.77882
      12  96.67306   7.30919         31.46171   0.000000  99.88937   6.77882  93.38937   6.77882  93.45663   7.83955  99.95663   7.83955
      12  96.74011   8.37036         31.48794   0.000000  99.95663   7.83955  93.45663   7.83955  93.52346   8.90117 100.02346   8.90117
      12  96.80672   9.43242         31.51419   0.000000 100.02346   8.90117  93.52346   8.90117  93.58986   9.96367 100.08986   9.96367
      12  96.87291  10.49537         31.54047   0.000000 100.08986   9.96367  93.58986   9.96367  93.65584  11.02706 100.15584  11.02706
      12  96.93868  11.55920         31.56676   0.000000 100.15584  11.02706  93.65584  11.02706  93.72140  12.09133 100.22140  12.09133
      12  97.00404  12.62391         31.59308   0.000000 100.22140  12.09133  93.72140  12.09133  93.78656  13.15650 100.28656  13.15650
      12  97.06899  13.68952         31.61942   0.000000 100.28656  13.15650  93.78656  13.15650  93.85131  14.22254 100.35131  14.22254
      12  97.13355  14.75601         31.64578   0.000000 100.35131  14.22254  93.85131  14.22254  93.91567  15.28948 100.41567  15.28948
      12  97.19771  15.82340         31.67216   0.000000 100.41567  15.28948  93.91567  15.28948  93.97964  16.35731 100.47964  16.35731
      12  97.26149  16.89167         31.69856   0.000000 100.47964  16.35731  93.97964  16.35731  94.04324  17.42603 100.54324  17.42603
      12  97.32490  17.96083         31.72499   0.000000 100.54324  17.42603  94.04324  17.42603  94.10646  18.49564 100.60646  18.49564
      12  97.38794  19.03089         31.75144   0.000000 100.60646  18.49564  94.10646  18.49564  94.16932  19.56614 100.66932  19.56614
      12  97.45063  20.10183         31.77791   0.000000 100.66932  19.56614  94.16932  19.56614  94.23183  20.63753 100.73183  20.63753
      12  97.51295  21.17367         31.80440   0.000000 100.73183  20.63753  94.23183  20.63753  94.29398  21.70982 100.79398  21.70982
      12  97.57494  22.24641         31.83092   0.000000 100.79398  21.70982  94.29398  21.70982  94.35580  22.78300 100.85580  22.78300
      12  97.63658  23.32004         31.85745   0.000000 100.85580  22.78300  94.35580  22.78300  94.41728  23.85707 100.91728  23.85707
      12  97.69790  24.39456         31.88401   0.000000 100.91728  23.85707  94.41728  23.85707  94.47843  24.93204 100.97843  24.93204
      12  97.75890  25.46998         31.91059   0.000000 100.97843  24.93204  94.47843  24.93204  94.53927  26.00791 101.03927  26.00791
      12  97.81958  26.54629         31.93720   0.000000 101.03927  26.00791  94.53927  26.00791  94.59980  27.08467 101.09980  27.08467
      12  97.87995  27.62350         31.96382   0.000000 101.09980  27.08467  94.59980  27.08467  94.66002  28.16233 101.16002  28.16233
      12  97.94003  28.70161         31.99047   0.000000 101.16002  28.16233  94.66002  28.16233  94.71995  29.24089 101.21995  29.24089
      12  97.99981  29.78062         32.01714   0.000000 101.21995  29.24089  94.71995  29.24089  94.77959  30.32035 101.27959  30.32035
      12  98.05932  30.86053         32.04383   0.000000 101.27959  30.32035  94.77959  30.32035  94.83896  31.40071 101.33896  31.40071
      12  98.11855  31.94134         32.07055   0.000000 101.33896  31.40071  94.83896  31.40071  94.89805  32.48197 101.39805  32.48197
      12  98.17751  33.02305         32.09728   0.000000 101.39805  32.48197  94.89805  32.48197  94.95689  33.56413 101.45689  33.56413
      12  98.23621  34.10566         32.12404   0.000000 101.45689  33.56413  94.95689  33.56413  95.01546  34.64719 101.51546  34.64719
      12  98.29466  35.18918         32.15082   0.000000 101.51546  34.64719  95.01546  34.64719  95.07379  35.73116 101.57379  35.73116
      12  98.35288  36.27359         32.17763   0.000000 101.57379  35.73116  95.07379  35.73116  95.13189  36.81603 101.63189  36.81603
      12  98.41085  37.35892         32.20445   0.000000 101.63189  36.81603  95.13189  36.81603  95.18975  37.90180 101.68975  37.90180
      12  98.46860  38.44514         32.23130   0.000000 101.68975  37.90180  95.18975  37.90180  95.24739  38.98848 101.74739  38.98848
      12  98.52613  39.53227         32.25817   0.000000 101.74739  38.98848  95.24739  38.98848  95.30482  40.07607 101.80482  40.07607
      12  98.58346  40.62031         32.28506   0.000000 101.80482  40.07607  95.30482  40.07607  95.36204  41.16456 101.86204  41.16456
      12  98.64058  41.70926         32.31198   0.000000 101.86204  41.16456  95.36204  41.16456  95.41906  42.25396 101.91906  42.25396
      12  98.69751  42.79911         32.33892   0.000000 101.91906  42.25396  95.41906  42.25396  95.47590  43.34427 101.97590  43.34427
      12  98.75425  43.88987         32.36588   0.000000 101.97590  43.34427  95.47590  43.34427  95.53255  44.43548 102.03255  44.43548
      12  98.81082  44.98155         32.39286   0.000000 102.03255  44.43548  95.53255  44.43548  95.58904  45.52761 102.08904  45.52761
      12  98.86723  46.07413         32.41987   0.000000 102.08904  45.52761  95.58904  45.52761  95.64536  46.62065 102.14536  46.62065
      12  98.92347  47.16762         32.44689   0.000000 102.14536  46.62065  95.64536  46.62065  95.70153  47.71459 102.20153  47.71459
      12  98.97956  48.26202         32.47394   0.000000 102.20153  47.71459  95.70153  47.71459  95.75755  48.80945 102.25755  48.80945
      12  99.03552  49.35734         32.50102   0.000000 102.25755  48.80945  95.75755  48.80945  95.81344  49.90523 102.31344  49.90523
      12  99.09134  50.45357         32.52811   0.000000 102.31344  49.90523  95.81344  49.90523  95.86919  51.00191 102.36919  51.00191
      12  99.14703  51.55071         32.55523   0.000000 102.36919  51.00191  95.86919  51.00191  95.92483  52.09951 102.42483  52.09951
      12  99.20261  52.64877         32.58237   0.000000 102.42483  52.09951  95.92483  52.09951  95.98036  53.19803 102.48036  53.19803
      12  99.25809  53.74774         32.60953   0.000000 102.48036  53.19803  95.98036  53.19803  96.03578  54.29746 102.53578  54.29746
      12  99.31346  54.84763         32.63672   0.000000 102.53578  54.29746  96.03578  54.29746  96.09111  55.39781 102.59111  55.39781
      12  99.36875  55.94844         32.66393   0.000000 102.59111  55.39781  96.09111  55.39781  96.14636  56.49907 102.64636  56.49907
      12  99.42396  57.05016         32.69116   0.000000 102.64636  56.49907  96.14636  56.49907  96.20153  57.60126 102.70153  57.60126
      12  99.47910  58.15281         32.71841   0.000000 102.70153  57.60126  96.20153  57.60126  96.25664  58.70436 102.75664  58.70436
      12  99.53418  59.25637         32.74569   0.000000 102.75664  58.70436  96.25664  58.70436  96.31169  59.80838 102.81169  59.80838
      12  99.58920  60.36085         32.77299   0.000000 102.81169  59.80838  96.31169  59.80838  96.36669  60.91332 102.86669  60.91332
      12  99.64418  61.46625         32.80031   0.000000 102.86669  60.91332  96.36669  60.91332  96.42165  62.01919 102.92165  62.01919
      12  99.69913  62.57258         32.82766   0.000000 102.92165  62.01919  96.42165  62.01919  96.47659  63.12597 102.97659  63.12597
      12  99.75405  63.67982         32.85503   0.000000 102.97659  63.12597  96.47659  63.12597  96.53150  64.23368 103.03150  64.23368
      12  99.80896  64.78799         32.88242   0.000000 103.03150  64.23368  96.53150  64.23368  96.58640  65.34231 103.08640  65.34231
      12  99.86386  65.89709         32.90983   0.000000 103.08640  65.34231  96.58640  65.34231  96.64131  66.45187 103.14131  66.45187
      12  99.91877  67.00711         32.93727   0.000000 103.14131  66.45187  96.64131  66.45187  96.69622  67.56235 103.19622  67.56235
      12  99.97368  68.11805         32.96472   0.000000 103.19622  67.56235  96.69622  67.56235  96.75114  68.67375 103.25114  68.67375
      12 100.02862  69.22992         32.99221   0.000000 103.25114  68.67375  96.75114  68.67375  96.80610  69.78609 103.30610  69.78609
      12 100.08359  70.34272         33.01971   0.000000 103.30610  69.78609  96.80610  69.78609  96.86109  70.89935 103.36109  70.89935
      12 100.13861  71.45644         33.04724   0.000000 103.36109  70.89935  96.86109  70.89935  96.91613  72.01354 103.41613  72.01354
      12 100.19367  72.57109         33.07479   0.000000 103.41613  72.01354  96.91613  72.01354  96.97122  73.12865 103.47122  73.12865
      12 100.24880  73.68668         33.10236   0.000000 103.47122  73.12865  96.97122  73.12865  97.02638  74.24470 103.52638  74.24470
      12 100.30399  74.80319         33.12996   0.000000 103.52638  74.24470  97.02638  74.24470  97.08161  75.36168 103.58161  75.36168
      12 100.35927  75.92063         33.15758   0.000000 103.58161  75.36168  97.08161  75.36168  97.13693  76.47959 103.63693  76.47959
      12 100.41463  77.03901         33.18522   0.000000 103.63693  76.47959  97.13693  76.47959  97.19235  77.59843 103.69235  77.59843
      12 100.47010  78.15831         33.21289   0.000000 103.69235  77.59843  97.19235  77.59843  97.24786  78.71820 103.74786  78.71820
      12 100.52567  79.27856         33.24058   0.000000 103.74786  78.71820  97.24786  78.71820  97.30350  79.83891 103.80350  79.83891
      12 100.58137  80.39973         33.26829   0.000000 103.80350  79.83891  97.30350  79.83891  97.35926  80.96055 103.85926  80.96055
      12 100.63719  81.52184         33.29603   0.000000 103.85926  80.96055  97.35926  80.96055  97.41515  82.08313 103.91515  82.08313
      12 100.69316  82.64488         33.32378   0.000000 103.91515  82.08313  97.41515  82.08313  97.47119  83.20664 103.97119  83.20664
      12 100.74927  83.76886         33.35157   0.000000 103.97119  83.20664  97.47119  83.20664  97.52738  84.33109 104.02738  84.33109
      12 100.80555  84.89378         33.37937   0.000000 104.02738  84.33109  97.52738  84.33109  97.58374  85.45648 104.08374  85.45648
      12 100.86199  86.01964         33.40720   0.000000 104.08374  85.45648  97.58374  85.45648  97.64027  86.58280 104.14027  86.58280
      12 100.91862  87.14643         33.43505   0.000000 104.14027  86.58280  97.64027  86.58280  97.69699  87.71006 104.19699  87.71006
      12 100.97543  88.27417         33.46292   0.000000 104.19699  87.71006  97.69699  87.71006  97.75391  88.83827 104.25391  88.83827
      12 101.03245  89.40284         33.49082   0.000000 104.25391  88.83827  97.75391  88.83827  97.81103  89.96741 104.31103  89.96741
      12 101.08968  90.53245         33.51874   0.000000 104.31103  89.96741  97.81103  89.96741  97.86837  91.09750 104.36837  91.09750
      12 101.14713  91.66301         33.54668   0.000000 104.36837  91.09750  97.86837  91.09750  97.92594  92.22852 104.42594  92.22852
      12 101.20482  92.79451         33.57465   0.000000 104.42594  92.22852  97.92594  92.22852  97.98374  93.36050 104.48374  93.36050
      12 101.26275  93.92695         33.60264   0.000000 104.48374  93.36050  97.98374  93.36050  98.04180  94.49341 104.54180  94.49341
      12 101.32093  95.06034         33.63066   0.000000 104.54180  94.49341  98.04180  94.49341  98.10011  95.62727 104.60011  95.62727
      12 101.37937  96.19467         33.65869   0.000000 104.60011  95.62727  98.10011  95.62727  98.15869  96.76207 104.65869  96.76207
      12 101.43810  97.32995         33.68675   0.000000 104.65869  96.76207  98.15869  96.76207  98.21756  97.89782 104.71756  97.89782
      12 101.49710  98.46617         33.71484   0.000000 104.71756  97.89782  98.21756  97.89782  98.27671  99.03452 104.77671  99.03452
      12 101.55641  99.60334         33.74295   0.000000 104.77671  99.03452  98.27671  99.03452  98.33617 100.17216 104.83617 100.17216
      12 101.61602 100.74146         33.77108   0.000000 104.83617 100.17216  98.33617 100.17216  98.39594 101.31076 104.89594 101.31076
      12 101.67595 101.88053         33.79923   0.000000 104.89594 101.31076  98.39594 101.31076  98.45604 102.45030 104.95604 102.45030
      12 101.73621 103.02055         33.82741   0.000000 104.95604 102.45030  98.45604 102.45030  98.51647 103.59079 105.01647 103.59079
      12 101.79682 104.16151         33.85561   0.000000 105.01647 103.59079  98.51647 103.59079  98.57724 104.73224 105.07724 104.73224
      12 101.85777 105.30343         33.88383   0.000000 105.07724 104.73224  98.57724 104.73224  98.63838 105.87463 105.13838 105.87463
      12 101.91909 106.44630         33.91208   0.000000 105.13838 105.87463  98.63838 105.87463  98.69988 107.01798 105.19988 107.01798
      12 101.98078 107.59013         33.94035   0.000000 105.19988 107.01798  98.69988 107.01798  98.76176 108.16228 105.26176 108.16228
      12 102.04286 108.73491         33.96865   0.000000 105.26176 108.16228  98.76176 108.16228  98.82404 109.30753 105.32404 109.30753
      12 102.10533 109.88064         33.99697   0.000000 105.32404 109.30753  98.82404 109.30753  98.88671 110.45374 105.38671 110.45374
      12 102.16821 111.02732         34.02531   0.000000 105.38671 110.45374  98.88671 110.45374  98.94980 111.60091 105.44980 111.60091
      12 102.23151 112.17497         34.05368   0.000000 105.44980 111.60091  98.94980 111.60091  99.01332 112.74903 105.51332 112.74903
      12 102.29525 113.32357         34.08207   0.000000 105.51332 112.74903  99.01332 112.74903  99.07727 113.89811 105.57727 113.89811
      12 102.35942 114.47313         34.11048   0.000000 105.57727 113.89811  99.07727 113.89811  99.14167 115.04814 105.64167 115.04814
      12 102.42405 115.62364         34.13892   0.000000 105.64167 115.04814  99.14167 115.04814  99.20653 116.19914 105.70653 116.19914
      12 102.48915 116.77512         34.16738   0.000000 105.70653 116.19914  99.20653 116.19914  99.27186 117.35109 105.77186 117.35109
      12 102.55472 117.92755         34.19586   0.000000 105.77186 117.35109  99.27186 117.35109  99.33768 118.50401 105.83768 118.50401
      12 102.62078 119.08095         34.22437   0.000000 105.83768 118.50401  99.33768 118.50401  99.40399 119.65788 105.90399 119.65788
      12 102.68734 120.23530         34.25291   0.000000 105.90399 119.65788  99.40399 119.65788  99.47081 120.81272 105.97081 120.81272
      12 102.75442 121.39062         34.28146   0.000000 105.97081 120.81272  99.47081 120.81272  99.53814 121.96852 106.03814 121.96852
      12 102.82202 122.54691         34.31004   0.000000 106.03814 121.96852  99.53814 121.96852  99.60601 123.12529 106.10601 123.12529
      12 102.89016 123.70415         34.33864   0.000000 106.10601 123.12529  99.60601 123.12529  99.67442 124.28302 106.17442 124.28302
      12 102.95884 124.86237         34.36727   0.000000 106.17442 124.28302  99.67442 124.28302  99.74339 125.44171 106.24339 125.44171
      12 103.02809 126.02154         34.39592   0.000000 106.24339 125.44171  99.74339 125.44171  99.81292 126.60137 106.31292 126.60137
      12 103.09791 127.18169         34.42460   0.000000 106.31292 126.60137  99.81292 126.60137  99.88303 127.76200 106.38303 127.76200
      11 115.76556   1.02764         34.08207   0.000000 118.98277   0.49989 112.48277   0.49989 112.54851   1.55538 119.04851   1.55538
      11 115.83164   2.08357         34.11048   0.000000 119.04851   1.55538 112.54851   1.55538 112.61493   2.61176 119.11493   2.61176
      11 115.89840   3.14039         34.13892   0.000000 119.11493   2.61176 112.61493   2.61176 112.68202   3.66902 119.18202   3.66902
      11 115.96582   4.19809         34.16738   0.000000 119.18202   3.66902 112.68202   3.66902 112.74976   4.72716 119.24976   4.72716
      11 116.03388   5.25667         34.19586   0.000000 119.24976   4.72716 112.74976   4.72716 112.81814   5.78618 119.31814   5.78618
      11 116.10258   6.31613         34.22437   0.000000 119.31814   5.78618 112.81814   5.78618 112.88715   6.84609 119.38715   6.84609
      11 116.17189   7.37648         34.25291   0.000000 119.38715   6.84609 112.88715   6.84609 112.95676   7.90688 119.45676   7.90688
      11 116.24180   8.43771         34.28146   0.000000 119.45676   7.90688 112.95676   7.90688 113.02697   8.96855 119.52697   8.96855
      11 116.31229   9.49983         34.31004   0.000000 119.52697   8.96855 113.02697   8.96855 113.09775  10.03111 119.59775  10.03111
      11 116.38336  10.56283         34.33864   0.000000 119.59775  10.03111 113.09775  10.03111 113.16909  11.09455 119.66909  11.09455
      11 116.45498  11.62671         34.36727   0.000000 119.66909  11.09455 113.16909  11.09455 113.24098  12.15888 119.74098  12.15888
      11 116.52714  12.69149         34.39592   0.000000 119.74098  12.15888 113.24098  12.15888 113.31341  13.22410 119.81341  13.22410
      11 116.59982  13.75715         34.42460   0.000000 119.81341  13.22410 113.31341  13.22410 113.38634  14.29020 119.88634  14.29020
      11 116.67301  14.82370         34.45330   0.000000 119.88634  14.29020 113.38634  14.29020 113.45978  15.35720 119.95978  15.35720
      11 116.74669  15.89114         34.48202   0.000000 119.95978  15.35720 113.45978  15.35720 113.53371  16.42508 120.03371  16.42508
      11 116.82085  16.95947         34.51077   0.000000 120.03371  16.42508 113.53371  16.42508 113.60810  17.49386 120.10810  17.49386
      11 116.89547  18.02869         34.53954   0.000000 120.10810  17.49386 113.60810  17.49386 113.68294  18.56352 120.18294  18.56352
      11 116.97054  19.09880         34.56833   0.000000 120.18294  18.56352 113.68294  18.56352 113.75822  19.63408 120.25822  19.63408
      11 117.04603  20.16980         34.59715   0.000000 120.25822  19.63408 113.75822  19.63408 113.83393  20.70553 120.33393  20.70553
      11 117.12194  21.24170         34.62600   0.000000 120.33393  20.70553 113.83393  20.70553 113.91003  21.77787 120.41003  21.77787
      11 117.19824  22.31449         34.65486   0.000000 120.41003  21.77787 113.91003  21.77787 113.98653  22.85111 120.48653  22.85111
      11 117.27492  23.38817         34.68375   0.000000 120.48653  22.85111 113.98653  22.85111 114.06339  23.92524 120.56339  23.92524
      11 117.35197  24.46275         34.71267   0.000000 120.56339  23.92524 114.06339  23.92524 114.14062  25.00027 120.64062  25.00027
      11 117.42936  25.53823         34.74161   0.000000 120.64062  25.00027 114.14062  25.00027 114.21818  26.07619 120.71818  26.07619
      11 117.50709  26.61460         34.77057   0.000000 120.71818  26.07619 114.21818  26.07619 114.29606  27.15301 120.79606  27.15301
      11 117.58513  27.69187         34.79956   0.000000 120.79606  27.15301 114.29606  27.15301 114.37425  28.23073 120.87425  28.23073
      11 117.66347  28.77004         34.82857   0.000000 120.87425  28.23073 114.37425  28.23073 114.45273  29.30935 120.95273  29.30935
      11 117.74208  29.84910         34.85761   0.000000 120.95273  29.30935 114.45273  29.30935 114.53149  30.38886 121.03149  30.38886
      11 117.82097  30.92907         34.88667   0.000000 121.03149  30.38886 114.53149  30.38886 114.61049  31.46928 121.11049  31.46928
      11 117.90010  32.00994         34.91575   0.000000 121.11049  31.46928 114.61049  31.46928 114.68974  32.55059 121.18974  32.55059
      11 117.97946  33.09170         34.94486   0.000000 121.18974  32.55059 114.68974  32.55059 114.76921  33.63281 121.26921  33.63281
      11 118.05903  34.17437         34.97399   0.000000 121.26921  33.63281 114.76921  33.63281 114.84888  34.71593 121.34888  34.71593
      11 118.13880  35.25794         35.00315   0.000000 121.34888  34.71593 114.84888  34.71593 114.92874  35.79996 121.42874  35.79996
      11 118.21874  36.34242         35.03233   0.000000 121.42874  35.79996 114.92874  35.79996 115.00877  36.88488 121.50877  36.88488
      11 118.29885  37.42780         35.06154   0.000000 121.50877  36.88488 115.00877  36.88488 115.08895  37.97071 121.58895  37.97071
      11 118.37910  38.51408         35.09077   0.000000 121.58895  37.97071 115.08895  37.97071 115.16927  39.05745 121.66927  39.05745
      11 118.45948  39.60127         35.12002   0.000000 121.66927  39.05745 115.16927  39.05745 115.24970  40.14509 121.74970  40.14509
      11 118.53997  40.68937         35.14930   0.000000 121.74970  40.14509 115.24970  40.14509 115.33024  41.23364 121.83024  41.23364
      11 118.62054  41.77837         35.17860   0.000000 121.83024  41.23364 115.33024  41.23364 115.41085  42.32310 121.91085  42.32310
      11 118.70119  42.86828         35.20793   0.000000 121.91085  42.32310 115.41085  42.32310 115.49153  43.41347 121.99153  43.41347
      11 118.78190  43.95910         35.23728   0.000000 121.99153  43.41347 115.49153  43.41347 115.57226  44.50474 122.07226  44.50474
      11 118.86264  45.05083         35.26666   0.000000 122.07226  44.50474 115.57226  44.50474 115.65301  45.59692 122.15301  45.59692
      11 118.94340  46.14347         35.29606   0.000000 122.15301  45.59692 115.65301  45.59692 115.73378  46.69002 122.23378  46.69002
      11 119.02416  47.23702         35.32549   0.000000 122.23378  46.69002 115.73378  46.69002 115.81453  47.78402 122.31453  47.78402
      11 119.10491  48.33148         35.35494   0.000000 122.31453  47.78402 115.81453  47.78402 115.89526  48.87894 122.39526  48.87894
      11 119.18562  49.42686         35.38441   0.000000 122.39526  48.87894 115.89526  48.87894 115.97594  49.97477 122.47594  49.97477
      11 119.26627  50.52315         35.41391   0.000000 122.47594  49.97477 115.97594  49.97477 116.05656  51.07152 122.55656  51.07152
      11 119.34685  51.62035         35.44344   0.000000 122.55656  51.07152 116.05656  51.07152 116.13710  52.16918 122.63710  52.16918
      11 119.42734  52.71846         35.47298   0.000000 122.63710  52.16918 116.13710  52.16918 116.21754  53.26775 122.71754  53.26775
      11 119.50772  53.81750         35.50256   0.000000 122.71754  53.26775 116.21754  53.26775 116.29786  54.36724 122.79786  54.36724
      11 119.58797  54.91744         35.53215   0.000000 122.79786  54.36724 116.29786  54.36724 116.37803  55.46765 122.87803  55.46765
      11 119.66807  56.01831         35.56178   0.000000 122.87803  55.46765 116.37803  55.46765 116.45806  56.56897 122.95806  56.56897
      11 119.74801  57.12009         35.59142   0.000000 122.95806  56.56897 116.45806  56.56897 116.53790  57.67121 123.03790  57.67121
      11 119.82776  58.22279         35.62110   0.000000 123.03790  57.67121 116.53790  57.67121 116.61755  58.77437 123.11755  58.77437
      11 119.90730  59.32641         35.65079   0.000000 123.11755  58.77437 116.61755  58.77437 116.69698  59.87845 123.19698  59.87845
      11 119.98662  60.43095         35.68051   0.000000 123.19698  59.87845 116.69698  59.87845 116.77618  60.98345 123.27618  60.98345
      11 120.06570  61.53642         35.71026   0.000000 123.27618  60.98345 116.77618  60.98345 116.85513  62.08938 123.35513  62.08938
      11 120.14451  62.64280         35.74003   0.000000 123.35513  62.08938 116.85513  62.08938 116.93380  63.19622 123.43380  63.19622
      11 120.22304  63.75010         35.76983   0.000000 123.43380  63.19622 116.93380  63.19622 117.01218  64.30399 123.51218  64.30399
      11 120.30127  64.85833         35.79965   0.000000 123.51218  64.30399 117.01218  64.30399 117.09025  65.41268 123.59025  65.41268
      11 120.37917  65.96749         35.82949   0.000000 123.59025  65.41268 117.09025  65.41268 117.16799  66.52229 123.66799  66.52229
      11 120.45673  67.07756         35.85936   0.000000 123.66799  66.52229 117.16799  66.52229 117.24537  67.63283 123.74537  67.63283
      11 120.53393  68.18857         35.88926   0.000000 123.74537  67.63283 117.24537  67.63283 117.32238  68.74430 123.82238  68.74430
      11 120.61075  69.30049         35.91918   0.000000 123.82238  68.74430 117.32238  68.74430 117.39900  69.85669 123.89900  69.85669
      11 120.68716  70.41335         35.94912   0.000000 123.89900  69.85669 117.39900  69.85669 117.47521  70.97001 123.97521  70.97001
      11 120.76316  71.52713         35.97909   0.000000 123.97521  70.97001 117.47521  70.97001 117.55098  72.08426 124.05098  72.08426
      11 120.83871  72.64185         36.00909   0.000000 124.05098  72.08426 117.55098  72.08426 117.62630  73.19943 124.12630  73.19943
      11 120.91379  73.75749         36.03911   0.000000 124.12630  73.19943 117.62630  73.19943 117.70115  74.31554 124.20115  74.31554
      11 120.98839  74.87406         36.06915   0.000000 124.20115  74.31554 117.70115  74.31554 117.77550  75.43258 124.27550  75.43258
      11 121.06249  75.99156         36.09922   0.000000 124.27550  75.43258 117.77550  75.43258 117.84933  76.55055 124.34933  76.55055
      11 121.13606  77.11000         36.12932   0.000000 124.34933  76.55055 117.84933  76.55055 117.92264  77.66945 124.42264  77.66945
      11 121.20909  78.22936         36.15944   0.000000 124.42264  77.66945 117.92264  77.66945 117.99538  78.78928 124.49538  78.78928
      11 121.28154  79.34966         36.18959   0.000000 124.49538  78.78928 117.99538  78.78928 118.06755  79.91005 124.56755  79.91005
      11 121.35341  80.47090         36.21976   0.000000 124.56755  79.91005 118.06755  79.91005 118.13911  81.03175 124.63911  81.03175
      11 121.42467  81.59306         36.24995   0.000000 124.63911  81.03175 118.13911  81.03175 118.21006  82.15438 124.71006  82.15438
      11 121.49530  82.71617         36.28017   0.000000 124.71006  82.15438 118.21006  82.15438 118.28037  83.27795 124.78037  83.27795
      11 121.56528  83.84021         36.31042   0.000000 124.78037  83.27795 118.28037  83.27795 118.35001  84.40246 124.85001  84.40246
      11 121.63459  84.96519         36.34069   0.000000 124.85001  84.40246 118.35001  84.40246 118.41897  85.52791 124.91897  85.52791
      11 121.70319  86.09110         36.37099   0.000000 124.91897  85.52791 118.41897  85.52791 118.48723  86.65429 124.98723  86.65429
      11 121.77109  87.21796         36.40131   0.000000 124.98723  86.65429 118.48723  86.65429 118.55475  87.78162 125.05475  87.78162
      11 121.83824  88.34575         36.43166   0.000000 125.05475  87.78162 118.55475  87.78162 118.62153  88.90988 125.12153  88.90988
      11 121.90464  89.47448         36.46203   0.000000 125.12153  88.90988 118.62153  88.90988 118.68753  90.03908 125.18753  90.03908
      11 121.97025  90.60416         36.49243   0.000000 125.18753  90.03908 118.68753  90.03908 118.75275  91.16923 125.25275  91.16923
      11 122.03505  91.73477         36.52285   0.000000 125.25275  91.16923 118.75275  91.16923 118.81714  92.30032 125.31714  92.30032
      11 122.09903  92.86633         36.55330   0.000000 125.31714  92.30032 118.81714  92.30032 118.88070  93.43235 125.38070  93.43235
      11 122.16217  93.99883         36.58377   0.000000 125.38070  93.43235 118.88070  93.43235 118.94340  94.56532 125.44340  94.56532
      11 122.22443  95.13228         36.61427   0.000000 125.44340  94.56532 118.94340  94.56532 119.00522  95.69924 125.50522  95.69924
      11 122.28580  96.26667         36.64479   0.000000 125.50522  95.69924 119.00522  95.69924 119.06613  96.83410 125.56613  96.83410
      11 122.34625  97.40201         36.67534   0.000000 125.56613  96.83410 119.06613  96.83410 119.12611  97.96991 125.62611  97.96991
      11 122.40576  98.53829         36.70592   0.000000 125.62611  97.96991 119.12611  97.96991 119.18515  99.10667 125.68515  99.10667
      11 122.46431  99.67552         36.73652   0.000000 125.68515  99.10667 119.18515  99.10667 119.24321 100.24437 125.74321 100.24437
      11 122.52187 100.81370         36.76715   0.000000 125.74321 100.24437 119.24321 100.24437 119.30028 101.38303 125.80028 101.38303
      11 122.57843 101.95283         36.79780   0.000000 125.80028 101.38303 119.30028 101.38303 119.35632 102.52263 125.85632 102.52263
      11 122.63396 103.09291         36.82848   0.000000 125.85632 102.52263 119.35632 102.52263 119.41132 103.66318 125.91132 103.66318
      11 122.68843 104.23393         36.85918   0.000000 125.91132 103.66318 119.41132 103.66318 119.46526 104.80469 125.96526 104.80469
      11 122.74183 105.37591         36.88991   0.000000 125.96526 104.80469 119.46526 104.80469 119.51811 105.94714 126.01811 105.94714
      11 122.79412 106.51884         36.92066   0.000000 126.01811 105.94714 119.51811 105.94714 119.56985 107.09055 126.06985 107.09055
      11 122.84530 107.66273         36.95144   0.000000 126.06985 107.09055 119.56985 107.09055 119.62045 108.23491 126.12045 108.23491
      11 122.89532 108.80757         36.98225   0.000000 126.12045 108.23491 119.62045 108.23491 119.66989 109.38022 126.16989 109.38022
      11 122.94417 109.95336         37.01308   0.000000 126.16989 109.38022 119.66989 109.38022 119.71814 110.52649 126.21814 110.52649
      11 122.99183 111.10010         37.04394   0.000000 126.21814 110.52649 119.71814 110.52649 119.76519 111.67372 126.26519 111.67372
      11 123.03826 112.24781         37.07482   0.000000 126.26519 111.67372 119.76519 111.67372 119.81101 112.82190 126.31101 112.82190
      11 123.08345 113.39647         37.10573   0.000000 126.31101 112.82190 119.81101 112.82190 119.85557 113.97104 126.35557 113.97104
      11 123.12738 114.54608         37.13666   0.000000 126.35557 113.97104 119.85557 113.97104 119.89885 115.12113 126.39885 115.12113
      11 123.17001 115.69666         37.16762   0.000000 126.39885 115.12113 119.89885 115.12113 119.94083 116.27219 126.44083 116.27219
      11 123.21132 116.84820         37.19861   0.000000 126.44083 116.27219 119.94083 116.27219 119.98147 117.42420 126.48147 117.42420
      11 123.25130 118.00069         37.22962   0.000000 126.48147 117.42420 119.98147 117.42420 120.02077 118.57718 126.52077 118.57718
      11 123.28990 119.15415         37.26066   0.000000 126.52077 118.57718 120.02077 118.57718 120.05868 119.73111 126.55868 119.73111
      11 123.32712 120.30856         37.29172   0.000000 126.55868 119.73111 120.05868 119.73111 120.09520 120.88601 126.59520 120.88601
      11 123.36292 121.46394         37.32281   0.000000 126.59520 120.88601 120.09520 120.88601 120.13028 122.04187 126.63028 122.04187
      11 123.39728 122.62029         37.35393   0.000000 126.63028 122.04187 120.13028 122.04187 120.16391 123.19870 126.66391 123.19870
      11 123.43018 123.77759         37.38507   0.000000 126.66391 123.19870 120.16391 123.19870 120.19606 124.35649 126.69606 124.35649
      11 123.46158 124.93587         37.41624   0.000000 126.69606 124.35649 120.19606 124.35649 120.22671 125.51524 126.72671 125.51524
      11 123.49147 126.09510         37.44743   0.000000 126.72671 125.51524 120.22671 125.51524 120.25583 126.67496 126.75583 126.67496
      11 123.51981 127.25531         37.47865   0.000000 126.75583 126.67496 120.25583 126.67496 120.28339 127.83565 126.78339 127.83565
