\wavsamp version for S13.0, 2005 Sep 13, D. Shupe
\processing time 13:37:15 PST 09/13/2005
\wavsamp software version 5.1 (Wed Apr 20 08:45:04 PDT 2005)
\character channelID = 0
| order |x_center |y_center |   wavelength   |  angle   |   x0    |   y0    |   x1    |   y1    |   x2    |   y2    |   x3    |   y3    |
| int   |  real   |  real   |    real        |   real   |  real   |  real   |  real   |  real   |  real   |  real   |  real   |  real   |
       2  62.26066  80.25328          5.12652  -2.400000  79.91611  80.00265  44.66928  81.47993  44.60532  80.50392  79.85216  79.02664
       2  62.19695  79.27727          5.15676  -2.400000  79.85216  79.02664  44.60532  80.50392  44.54187  79.52791  79.78870  78.05063
       2  62.13374  78.30126          5.18700  -2.400000  79.78870  78.05063  44.54187  79.52791  44.47891  78.55190  79.72574  77.07462
       2  62.07103  77.32526          5.21725  -2.400000  79.72574  77.07462  44.47891  78.55190  44.41645  77.57589  79.66328  76.09861
       2  62.00882  76.34925          5.24749  -2.400000  79.66328  76.09861  44.41645  77.57589  44.35449  76.59988  79.60132  75.12260
       2  61.94711  75.37324          5.27773  -2.400000  79.60132  75.12260  44.35449  76.59988  44.29302  75.62387  79.53986  74.14659
       2  61.88590  74.39723          5.30797  -2.400000  79.53986  74.14659  44.29302  75.62387  44.23206  74.64786  79.47889  73.17058
       2  61.82518  73.42122          5.33821  -2.400000  79.47889  73.17058  44.23206  74.64786  44.17160  73.67186  79.41843  72.19458
       2  61.76497  72.44521          5.36846  -2.400000  79.41843  72.19458  44.17160  73.67186  44.11163  72.69585  79.35846  71.21857
       2  61.70525  71.46920          5.39870  -2.400000  79.35846  71.21857  44.11163  72.69585  44.05216  71.71984  79.29900  70.24256
       2  61.64603  70.49319          5.42894  -2.400000  79.29900  70.24256  44.05216  71.71984  43.99320  70.74383  79.24003  69.26655
       2  61.58732  69.51718          5.45918  -2.400000  79.24003  69.26655  43.99320  70.74383  43.93473  69.76782  79.18156  68.29054
       2  61.52910  68.54117          5.48942  -2.400000  79.18156  68.29054  43.93473  69.76782  43.87676  68.79181  79.12359  67.31453
       2  61.47138  67.56517          5.51967  -2.400000  79.12359  67.31453  43.87676  68.79181  43.81929  67.81580  79.06612  66.33852
       2  61.41415  66.58916          5.54991  -2.400000  79.06612  66.33852  43.81929  67.81580  43.76231  66.83979  79.00915  65.36251
       2  61.35743  65.61315          5.58015  -2.400000  79.00915  65.36251  43.76231  66.83979  43.70584  65.86378  78.95267  64.38650
       2  61.30121  64.63714          5.61039  -2.400000  78.95267  64.38650  43.70584  65.86378  43.64987  64.88777  78.89670  63.41049
       2  61.24548  63.66113          5.64063  -2.400000  78.89670  63.41049  43.64987  64.88777  43.59439  63.91177  78.84122  62.43449
       2  61.19026  62.68512          5.67088  -2.400000  78.84122  62.43449  43.59439  63.91177  43.53941  62.93576  78.78625  61.45848
       2  61.13553  61.70911          5.70112  -2.400000  78.78625  61.45848  43.53941  62.93576  43.48494  61.95975  78.73177  60.48247
       2  61.08130  60.73310          5.73136  -2.400000  78.73177  60.48247  43.48494  61.95975  43.43096  60.98374  78.67779  59.50646
       2  61.02757  59.75709          5.76160  -2.400000  78.67779  59.50646  43.43096  60.98374  43.37748  60.00773  78.62431  58.53045
       2  60.97434  58.78108          5.79184  -2.400000  78.62431  58.53045  43.37748  60.00773  43.32450  59.03172  78.57133  57.55444
       2  60.92161  57.80508          5.82209  -2.400000  78.57133  57.55444  43.32450  59.03172  43.27202  58.05571  78.51885  56.57843
       2  60.86938  56.82907          5.85233  -2.400000  78.51885  56.57843  43.27202  58.05571  43.22003  57.07970  78.46687  55.60242
       2  60.81764  55.85306          5.88257  -2.400000  78.46687  55.60242  43.22003  57.07970  43.16855  56.10369  78.41538  54.62641
       2  60.76641  54.87705          5.91281  -2.400000  78.41538  54.62641  43.16855  56.10369  43.11756  55.12768  78.36440  53.65040
       2  60.71567  53.90104          5.94305  -2.400000  78.36440  53.65040  43.11756  55.12768  43.06708  54.15168  78.31391  52.67440
       2  60.66544  52.92503          5.97330  -2.400000  78.31391  52.67440  43.06708  54.15168  43.01709  53.17567  78.26392  51.69839
       2  60.61570  51.94902          6.00354  -2.400000  78.26392  51.69839  43.01709  53.17567  42.96760  52.19966  78.21443  50.72238
       2  60.56646  50.97301          6.03378  -2.400000  78.21443  50.72238  42.96760  52.19966  42.91861  51.22365  78.16544  49.74637
       2  60.51772  49.99700          6.06402  -2.400000  78.16544  49.74637  42.91861  51.22365  42.87012  50.24764  78.11695  48.77036
       2  60.46948  49.02099          6.09426  -2.400000  78.11695  48.77036  42.87012  50.24764  42.82213  49.27163  78.06896  47.79435
       2  60.42174  48.04499          6.12451  -2.400000  78.06896  47.79435  42.82213  49.27163  42.77463  48.29562  78.02147  46.81834
       2  60.37449  47.06898          6.15475  -2.400000  78.02147  46.81834  42.77463  48.29562  42.72764  47.31961  77.97447  45.84233
       2  60.32775  46.09297          6.18499  -2.400000  77.97447  45.84233  42.72764  47.31961  42.68115  46.34360  77.92798  44.86632
       2  60.28150  45.11696          6.21523  -2.400000  77.92798  44.86632  42.68115  46.34360  42.63515  45.36759  77.88198  43.89031
       2  60.23575  44.14095          6.24547  -2.400000  77.88198  43.89031  42.63515  45.36759  42.58965  44.39159  77.83648  42.91431
       2  60.19051  43.16494          6.27572  -2.400000  77.83648  42.91431  42.58965  44.39159  42.54465  43.41558  77.79149  41.93830
       2  60.14576  42.18893          6.30596  -2.400000  77.79149  41.93830  42.54465  43.41558  42.50015  42.43957  77.74699  40.96229
       2  60.10151  41.21292          6.33620  -2.400000  77.74699  40.96229  42.50015  42.43957  42.45615  41.46356  77.70299  39.98628
       2  60.05776  40.23691          6.36644  -2.400000  77.70299  39.98628  42.45615  41.46356  42.41265  40.48755  77.65948  39.01027
       2  60.01450  39.26090          6.39668  -2.400000  77.65948  39.01027  42.41265  40.48755  42.36965  39.51154  77.61648  38.03426
       2  59.97175  38.28490          6.42693  -2.400000  77.61648  38.03426  42.36965  39.51154  42.32714  38.53553  77.57398  37.05825
       2  59.92950  37.30889          6.45717  -2.400000  77.57398  37.05825  42.32714  38.53553  42.28514  37.55952  77.53197  36.08224
       2  59.88774  36.33288          6.48741  -2.400000  77.53197  36.08224  42.28514  37.55952  42.24363  36.58351  77.49047  35.10623
       2  59.84648  35.35687          6.51765  -2.400000  77.49047  35.10623  42.24363  36.58351  42.20262  35.60750  77.44946  34.13022
       2  59.80572  34.38086          6.54789  -2.400000  77.44946  34.13022  42.20262  35.60750  42.16212  34.63150  77.40895  33.15422
       2  59.76547  33.40485          6.57814  -2.400000  77.40895  33.15422  42.16212  34.63150  42.12211  33.65549  77.36894  32.17821
       2  59.72571  32.42884          6.60838  -2.400000  77.36894  32.17821  42.12211  33.65549  42.08260  32.67948  77.32943  31.20220
       2  59.68644  31.45283          6.63862  -2.400000  77.32943  31.20220  42.08260  32.67948  42.04358  31.70347  77.29042  30.22619
       2  59.64768  30.47682          6.66886  -2.400000  77.29042  30.22619  42.04358  31.70347  42.00507  30.72746  77.25190  29.25018
       2  59.60942  29.50081          6.69910  -2.400000  77.25190  29.25018  42.00507  30.72746  41.96706  29.75145  77.21389  28.27417
       2  59.57165  28.52481          6.72935  -2.400000  77.21389  28.27417  41.96706  29.75145  41.92954  28.77544  77.17638  27.29816
       2  59.53439  27.54880          6.75959  -2.400000  77.17638  27.29816  41.92954  28.77544  41.89253  27.79943  77.13936  26.32215
       2  59.49762  26.57279          6.78983  -2.400000  77.13936  26.32215  41.89253  27.79943  41.85601  26.82342  77.10284  25.34614
       2  59.46135  25.59678          6.82007  -2.400000  77.10284  25.34614  41.85601  26.82342  41.81999  25.84741  77.06682  24.37013
       2  59.42559  24.62077          6.85031  -2.400000  77.06682  24.37013  41.81999  25.84741  41.78447  24.87141  77.03130  23.39413
       2  59.39032  23.64476          6.88056  -2.400000  77.03130  23.39413  41.78447  24.87141  41.74945  23.89540  76.99628  22.41812
       2  59.35554  22.66875          6.91080  -2.400000  76.99628  22.41812  41.74945  23.89540  41.71493  22.91939  76.96176  21.44211
       2  59.32127  21.69274          6.94104  -2.400000  76.96176  21.44211  41.71493  22.91939  41.68091  21.94338  76.92774  20.46610
       2  59.28750  20.71673          6.97128  -2.400000  76.92774  20.46610  41.68091  21.94338  41.64738  20.96737  76.89422  19.49009
       2  59.25422  19.74072          7.00152  -2.400000  76.89422  19.49009  41.64738  20.96737  41.61436  19.99136  76.86119  18.51408
       2  59.22145  18.76472          7.03177  -2.400000  76.86119  18.51408  41.61436  19.99136  41.58183  19.01535  76.82866  17.53807
       2  59.18917  17.78871          7.06201  -2.400000  76.82866  17.53807  41.58183  19.01535  41.54980  18.03934  76.79664  16.56206
       2  59.15739  16.81270          7.09225  -2.400000  76.79664  16.56206  41.54980  18.03934  41.51828  17.06333  76.76511  15.58605
       2  59.12612  15.83669          7.12249  -2.400000  76.76511  15.58605  41.51828  17.06333  41.48725  16.08732  76.73408  14.61004
       2  59.09534  14.86068          7.15273  -2.400000  76.73408  14.61004  41.48725  16.08732  41.45672  15.11132  76.70355  13.63404
       2  59.06505  13.88467          7.18298  -2.400000  76.70355  13.63404  41.45672  15.11132  41.42668  14.13531  76.67352  12.65803
       2  59.03527  12.90866          7.21322  -2.400000  76.67352  12.65803  41.42668  14.13531  41.39715  13.15930  76.64398  11.68202
       2  59.00599  11.93265          7.24346  -2.400000  76.64398  11.68202  41.39715  13.15930  41.36812  12.18329  76.61495  10.70601
       2  58.97720  10.95664          7.27370  -2.400000  76.61495  10.70601  41.36812  12.18329  41.33958  11.20728  76.58642   9.73000
       2  58.94892   9.98063          7.30394  -2.400000  76.58642   9.73000  41.33958  11.20728  41.31155  10.23127  76.55838   8.75399
       2  58.92113   9.00463          7.33419  -2.400000  76.55838   8.75399  41.31155  10.23127  41.28401   9.25526  76.53084   7.77798
       2  58.89384   8.02862          7.36443  -2.400000  76.53084   7.77798  41.28401   9.25526  41.25697   8.27925  76.50380   6.80197
       2  58.86706   7.05261          7.39467  -2.400000  76.50380   6.80197  41.25697   8.27925  41.23043   7.30324  76.47727   5.82596
       2  58.84077   6.07660          7.42491  -2.400000  76.47727   5.82596  41.23043   7.30324  41.20439   6.32723  76.45122   4.84995
       2  58.81498   5.10059          7.45515  -2.400000  76.45122   4.84995  41.20439   6.32723  41.17885   5.35123  76.42568   3.87395
       2  58.78968   4.12458          7.48540  -2.400000  76.42568   3.87395  41.17885   5.35123  41.15381   4.37522  76.40064   2.89794
       2  58.76489   3.14857          7.51564  -2.400000  76.40064   2.89794  41.15381   4.37522  41.12926   3.39921  76.37610   1.92193
       2  58.74060   2.17256          7.54588  -2.400000  76.37610   1.92193  41.12926   3.39921  41.10522   2.42320  76.35205   0.94592
       2  58.71680   1.19655          7.57612  -2.400000  76.35205   0.94592  41.10522   2.42320  41.08167   1.44719  76.32851  -0.03009
       2  58.69350   0.22054          7.60636  -2.400000  76.32851  -0.03009  41.08167   1.44719  41.05863   0.47118  76.30546  -1.00610
       3  64.23857 127.03808          7.33419  -2.400000  81.92178 126.78745  46.67495 128.26473  46.55667 127.28872  81.80350 125.81144
       3  64.12291 126.06208          7.39467  -2.400000  81.80350 125.81144  46.55667 127.28872  46.44363 126.31272  81.69046 124.83544
       3  64.01248 125.08608          7.45515  -2.400000  81.69046 124.83544  46.44363 126.31272  46.33582 125.33672  81.58265 123.85944
       3  63.90730 124.11008          7.51564  -2.400000  81.58265 123.85944  46.33582 125.33672  46.23325 124.36072  81.48008 122.88344
       3  63.80734 123.13408          7.57612  -2.400000  81.48008 122.88344  46.23325 124.36072  46.13591 123.38472  81.38275 121.90744
       3  63.71263 122.15808          7.63660  -2.400000  81.38275 121.90744  46.13591 123.38472  46.04382 122.40872  81.29065 120.93144
       3  63.62315 121.18208          7.69709  -2.400000  81.29065 120.93144  46.04382 122.40872  45.95695 121.43272  81.20379 119.95544
       3  63.53890 120.20608          7.75757  -2.400000  81.20379 119.95544  45.95695 121.43272  45.87533 120.45672  81.12216 118.97944
       3  63.45989 119.23008          7.81805  -2.400000  81.12216 118.97944  45.87533 120.45672  45.79894 119.48072  81.04577 118.00344
       3  63.38612 118.25408          7.87854  -2.400000  81.04577 118.00344  45.79894 119.48072  45.72778 118.50472  80.97462 117.02744
       3  63.31759 117.27808          7.93902  -2.400000  80.97462 117.02744  45.72778 118.50472  45.66187 117.52872  80.90870 116.05144
       3  63.25429 116.30207          7.99951  -2.400000  80.90870 116.05144  45.66187 117.52872  45.60118 116.55271  80.84802 115.07543
       3  63.19622 115.32607          8.05999  -2.400000  80.84802 115.07543  45.60118 116.55271  45.54574 115.57671  80.79257 114.09943
       3  63.14339 114.35007          8.12047  -2.400000  80.79257 114.09943  45.54574 115.57671  45.49553 114.60071  80.74236 113.12343
       3  63.09580 113.37407          8.18096  -2.400000  80.74236 113.12343  45.49553 114.60071  45.45055 113.62471  80.69739 112.14743
       3  63.05345 112.39807          8.24144  -2.400000  80.69739 112.14743  45.45055 113.62471  45.41082 112.64871  80.65765 111.17143
       3  63.01633 111.42207          8.30192  -2.400000  80.65765 111.17143  45.41082 112.64871  45.37631 111.67271  80.62315 110.19543
       3  62.98444 110.44607          8.36241  -2.400000  80.62315 110.19543  45.37631 111.67271  45.34705 110.69671  80.59388 109.21943
       3  62.95780 109.47007          8.42289  -2.400000  80.59388 109.21943  45.34705 110.69671  45.32302 109.72071  80.56985 108.24343
       3  62.93638 108.49407          8.48337  -2.400000  80.56985 108.24343  45.32302 109.72071  45.30423 108.74471  80.55106 107.26743
       3  62.92021 107.51807          8.54386  -2.400000  80.55106 107.26743  45.30423 108.74471  45.29067 107.76871  80.53750 106.29143
       3  62.90927 106.54207          8.60434  -2.400000  80.53750 106.29143  45.29067 107.76871  45.28235 106.79271  80.52918 105.31543
       3  62.90357 105.56606          8.66483  -2.400000  80.52918 105.31543  45.28235 106.79271  45.27926 105.81670  80.52610 104.33942
       1  21.18243 126.76505          7.45515  -1.700000  38.83359 126.72880   3.57134 127.77536   3.53127 126.80130  38.79352 125.75474
       1  21.14235 125.79099          7.51564  -1.700000  38.79352 125.75474   3.53127 126.80130   3.49118 125.82724  38.75343 124.78068
       1  21.10225 124.81693          7.57612  -1.700000  38.75343 124.78068   3.49118 125.82724   3.45107 124.85318  38.71332 123.80662
       1  21.06213 123.84287          7.63660  -1.700000  38.71332 123.80662   3.45107 124.85318   3.41093 123.87912  38.67318 122.83256
       1  21.02198 122.86880          7.69709  -1.700000  38.67318 122.83256   3.41093 123.87912   3.37077 122.90505  38.63302 121.85849
       1  20.98181 121.89474          7.75757  -1.700000  38.63302 121.85849   3.37077 122.90505   3.33059 121.93099  38.59284 120.88443
       1  20.94162 120.92068          7.81805  -1.700000  38.59284 120.88443   3.33059 121.93099   3.29039 120.95693  38.55264 119.91037
       1  20.90140 119.94662          7.87854  -1.700000  38.55264 119.91037   3.29039 120.95693   3.25016 119.98287  38.51241 118.93631
       1  20.86116 118.97256          7.93902  -1.700000  38.51241 118.93631   3.25016 119.98287   3.20991 119.00880  38.47216 117.96225
       1  20.82090 117.99849          7.99951  -1.700000  38.47216 117.96225   3.20991 119.00880   3.16963 118.03474  38.43189 116.98818
       1  20.78062 117.02443          8.05999  -1.700000  38.43189 116.98818   3.16963 118.03474   3.12934 117.06068  38.39159 116.01412
       1  20.74031 116.05037          8.12047  -1.700000  38.39159 116.01412   3.12934 117.06068   3.08902 116.08662  38.35127 115.04006
       1  20.69998 115.07631          8.18096  -1.700000  38.35127 115.04006   3.08902 116.08662   3.04868 115.11256  38.31093 114.06600
       1  20.65962 114.10225          8.24144  -1.700000  38.31093 114.06600   3.04868 115.11256   3.00831 114.13849  38.27056 113.09194
       1  20.61925 113.12818          8.30192  -1.700000  38.27056 113.09194   3.00831 114.13849   2.96793 113.16443  38.23018 112.11787
       1  20.57885 112.15412          8.36241  -1.700000  38.23018 112.11787   2.96793 113.16443   2.92752 112.19037  38.18977 111.14381
       1  20.53843 111.18006          8.42289  -1.700000  38.18977 111.14381   2.92752 112.19037   2.88708 111.21631  38.14933 110.16975
       1  20.49798 110.20600          8.48337  -1.700000  38.14933 110.16975   2.88708 111.21631   2.84663 110.24225  38.10888 109.19569
       1  20.45752 109.23194          8.54386  -1.700000  38.10888 109.19569   2.84663 110.24225   2.80615 109.26818  38.06840 108.22162
       1  20.41703 108.25787          8.60434  -1.700000  38.06840 108.22162   2.80615 109.26818   2.76565 108.29412  38.02790 107.24756
       1  20.37651 107.28381          8.66483  -1.700000  38.02790 107.24756   2.76565 108.29412   2.72512 107.32006  37.98737 106.27350
       1  20.33598 106.30975          8.72531  -1.700000  37.98737 106.27350   2.72512 107.32006   2.68457 106.34600  37.94683 105.29944
       1  20.29542 105.33569          8.78579  -1.700000  37.94683 105.29944   2.68457 106.34600   2.64400 105.37194  37.90625 104.32538
       1  20.25484 104.36162          8.84628  -1.700000  37.90625 104.32538   2.64400 105.37194   2.60341 104.39787  37.86566 103.35131
       1  20.21423 103.38756          8.90676  -1.700000  37.86566 103.35131   2.60341 104.39787   2.56280 103.42381  37.82505 102.37725
       1  20.17360 102.41350          8.96724  -1.700000  37.82505 102.37725   2.56280 103.42381   2.52216 102.44975  37.78441 101.40319
       1  20.13295 101.43944          9.02773  -1.700000  37.78441 101.40319   2.52216 102.44975   2.48150 101.47569  37.74375 100.42913
       1  20.09228 100.46538          9.08821  -1.700000  37.74375 100.42913   2.48150 101.47569   2.44081 100.50162  37.70306  99.45507
       1  20.05159  99.49131          9.14869  -1.700000  37.70306  99.45507   2.44081 100.50162   2.40010  99.52756  37.66235  98.48100
       1  20.01087  98.51725          9.20918  -1.700000  37.66235  98.48100   2.40010  99.52756   2.35937  98.55350  37.62162  97.50694
       1  19.97013  97.54319          9.26966  -1.700000  37.62162  97.50694   2.35937  98.55350   2.31862  97.57944  37.58087  96.53288
       1  19.92936  96.56913          9.33015  -1.700000  37.58087  96.53288   2.31862  97.57944   2.27785  96.60538  37.54010  95.55882
       1  19.88857  95.59507          9.39063  -1.700000  37.54010  95.55882   2.27785  96.60538   2.23705  95.63131  37.49930  94.58475
       1  19.84776  94.62100          9.45111  -1.700000  37.49930  94.58475   2.23705  95.63131   2.19623  94.65725  37.45848  93.61069
       1  19.80693  93.64694          9.51160  -1.700000  37.45848  93.61069   2.19623  94.65725   2.15538  93.68319  37.41763  92.63663
       1  19.76608  92.67288          9.57208  -1.700000  37.41763  92.63663   2.15538  93.68319   2.11451  92.70913  37.37676  91.66257
       1  19.72520  91.69882          9.63256  -1.700000  37.37676  91.66257   2.11451  92.70913   2.07362  91.73507  37.33587  90.68851
       1  19.68430  90.72475          9.69305  -1.700000  37.33587  90.68851   2.07362  91.73507   2.03271  90.76100  37.29496  89.71444
       1  19.64337  89.75069          9.75353  -1.700000  37.29496  89.71444   2.03271  90.76100   1.99178  89.78694  37.25403  88.74038
       1  19.60242  88.77663          9.81401  -1.700000  37.25403  88.74038   1.99178  89.78694   1.95082  88.81288  37.21307  87.76632
       1  19.56145  87.80257          9.87450  -1.700000  37.21307  87.76632   1.95082  88.81288   1.90984  87.83882  37.17209  86.79226
       1  19.52046  86.82851          9.93498  -1.700000  37.17209  86.79226   1.90984  87.83882   1.86883  86.86475  37.13108  85.81820
       1  19.47945  85.85444          9.99547  -1.700000  37.13108  85.81820   1.86883  86.86475   1.82780  85.89069  37.09006  84.84413
       1  19.43841  84.88038         10.05595  -1.700000  37.09006  84.84413   1.82780  85.89069   1.78675  84.91663  37.04901  83.87007
       1  19.39735  83.90632         10.11643  -1.700000  37.04901  83.87007   1.78675  84.91663   1.74568  83.94257  37.00793  82.89601
       1  19.35626  82.93226         10.17692  -1.700000  37.00793  82.89601   1.74568  83.94257   1.70459  82.96851  36.96684  81.92195
       1  19.31516  81.95820         10.23740  -1.700000  36.96684  81.92195   1.70459  82.96851   1.66347  81.99444  36.92572  80.94788
       1  19.27403  80.98413         10.29788  -1.700000  36.92572  80.94788   1.66347  81.99444   1.62233  81.02038  36.88458  79.97382
       1  19.23287  80.01007         10.35837  -1.700000  36.88458  79.97382   1.62233  81.02038   1.58116  80.04632  36.84341  78.99976
       1  19.19170  79.03601         10.41885  -1.700000  36.84341  78.99976   1.58116  80.04632   1.53998  79.07226  36.80223  78.02570
       1  19.15050  78.06195         10.47933  -1.700000  36.80223  78.02570   1.53998  79.07226   1.49877  78.09820  36.76102  77.05164
       1  19.10928  77.08788         10.53982  -1.700000  36.76102  77.05164   1.49877  78.09820   1.45753  77.12413  36.71978  76.07757
       1  19.06803  76.11382         10.60030  -1.700000  36.71978  76.07757   1.45753  77.12413   1.41628  76.15007  36.67853  75.10351
       1  19.02677  75.13976         10.66079  -1.700000  36.67853  75.10351   1.41628  76.15007   1.37500  75.17601  36.63725  74.12945
       1  18.98548  74.16570         10.72127  -1.700000  36.63725  74.12945   1.37500  75.17601   1.33370  74.20195  36.59595  73.15539
       1  18.94417  73.19164         10.78175  -1.700000  36.59595  73.15539   1.33370  74.20195   1.29238  73.22788  36.55463  72.18133
       1  18.90283  72.21757         10.84224  -1.700000  36.55463  72.18133   1.29238  73.22788   1.25103  72.25382  36.51328  71.20726
       1  18.86147  71.24351         10.90272  -1.700000  36.51328  71.20726   1.25103  72.25382   1.20966  71.27976  36.47191  70.23320
       1  18.82009  70.26945         10.96320  -1.700000  36.47191  70.23320   1.20966  71.27976   1.16827  70.30570  36.43052  69.25914
       1  18.77869  69.29539         11.02369  -1.700000  36.43052  69.25914   1.16827  70.30570   1.12685  69.33164  36.38910  68.28508
       1  18.73726  68.32133         11.08417  -1.700000  36.38910  68.28508   1.12685  69.33164   1.08541  68.35757  36.34766  67.31101
       1  18.69581  67.34726         11.14465  -1.700000  36.34766  67.31101   1.08541  68.35757   1.04395  67.38351  36.30620  66.33695
       1  18.65434  66.37320         11.20514  -1.700000  36.30620  66.33695   1.04395  67.38351   1.00247  66.40945  36.26472  65.36289
       1  18.61284  65.39914         11.26562  -1.700000  36.26472  65.36289   1.00247  66.40945   0.96096  65.43539  36.22321  64.38883
       1  18.57133  64.42508         11.32611  -1.700000  36.22321  64.38883   0.96096  65.43539   0.91943  64.46133  36.18168  63.41477
       1  18.52978  63.45101         11.38659  -1.700000  36.18168  63.41477   0.91943  64.46133   0.87788  63.48726  36.14013  62.44070
       1  18.48822  62.47695         11.44707  -1.700000  36.14013  62.44070   0.87788  63.48726   0.83631  62.51320  36.09856  61.46664
       1  18.44663  61.50289         11.50756  -1.700000  36.09856  61.46664   0.83631  62.51320   0.79471  61.53914  36.05696  60.49258
       1  18.40502  60.52883         11.56804  -1.700000  36.05696  60.49258   0.79471  61.53914   0.75309  60.56508  36.01534  59.51852
       1  18.36339  59.55477         11.62852  -1.700000  36.01534  59.51852   0.75309  60.56508   0.71144  59.59101  35.97369  58.54446
       1  18.32174  58.58070         11.68901  -1.700000  35.97369  58.54446   0.71144  59.59101   0.66978  58.61695  35.93203  57.57039
       1  18.28006  57.60664         11.74949  -1.700000  35.93203  57.57039   0.66978  58.61695   0.62809  57.64289  35.89034  56.59633
       1  18.23836  56.63258         11.80997  -1.700000  35.89034  56.59633   0.62809  57.64289   0.58637  56.66883  35.84863  55.62227
       1  18.19664  55.65852         11.87046  -1.700000  35.84863  55.62227   0.58637  56.66883   0.54464  55.69477  35.80689  54.64821
       1  18.15489  54.68446         11.93094  -1.700000  35.80689  54.64821   0.54464  55.69477   0.50288  54.72070  35.76513  53.67414
       1  18.11312  53.71039         11.99143  -1.700000  35.76513  53.67414   0.50288  54.72070   0.46110  53.74664  35.72335  52.70008
       1  18.07133  52.73633         12.05191  -1.700000  35.72335  52.70008   0.46110  53.74664   0.41930  52.77258  35.68155  51.72602
       1  18.02951  51.76227         12.11239  -1.700000  35.68155  51.72602   0.41930  52.77258   0.37747  51.79852  35.63972  50.75196
       1  17.98767  50.78821         12.17288  -1.700000  35.63972  50.75196   0.37747  51.79852   0.33562  50.82446  35.59787  49.77790
       1  17.94581  49.81414         12.23336  -1.700000  35.59787  49.77790   0.33562  50.82446   0.29375  49.85039  35.55600  48.80383
       1  17.90393  48.84008         12.29384  -1.700000  35.55600  48.80383   0.29375  49.85039   0.25185  48.87633  35.51411  47.82977
       1  17.86202  47.86602         12.35433  -1.700000  35.51411  47.82977   0.25185  48.87633   0.20994  47.90227  35.47219  46.85571
       1  17.82010  46.89196         12.41481  -1.700000  35.47219  46.85571   0.20994  47.90227   0.16800  46.92821  35.43025  45.88165
       1  17.77814  45.91790         12.47529  -1.700000  35.43025  45.88165   0.16800  46.92821   0.12603  45.95414  35.38828  44.90759
       1  17.73617  44.94383         12.53578  -1.700000  35.38828  44.90759   0.12603  45.95414   0.08405  44.98008  35.34630  43.93352
       1  17.69417  43.96977         12.59626  -1.700000  35.34630  43.93352   0.08405  44.98008   0.04204  44.00602  35.30429  42.95946
       1  17.65215  42.99571         12.65675  -1.700000  35.30429  42.95946   0.04204  44.00602   0.00001  43.03196  35.26226  41.98540
       1  17.61011  42.02165         12.71723  -1.700000  35.26226  41.98540   0.00001  43.03196  -0.04205  42.05790  35.22020  41.01134
       1  17.56804  41.04759         12.77771  -1.700000  35.22020  41.01134  -0.04205  42.05790  -0.08413  41.08383  35.17812  40.03728
       1  17.52595  40.07352         12.83820  -1.700000  35.17812  40.03728  -0.08413  41.08383  -0.12623  40.10977  35.13602  39.06321
       1  17.48384  39.09946         12.89868  -1.700000  35.13602  39.06321  -0.12623  40.10977  -0.16835  39.13571  35.09390  38.08915
       1  17.44170  38.12540         12.95916  -1.700000  35.09390  38.08915  -0.16835  39.13571  -0.21050  38.16165  35.05175  37.11509
       1  17.39955  37.15134         13.01965  -1.700000  35.05175  37.11509  -0.21050  38.16165  -0.25267  37.18759  35.00959  36.14103
       1  17.35737  36.17728         13.08013  -1.700000  35.00959  36.14103  -0.25267  37.18759  -0.29486  36.21352  34.96739  35.16696
       1  17.31516  35.20321         13.14061  -1.700000  34.96739  35.16696  -0.29486  36.21352  -0.33707  35.23946  34.92518  34.19290
       1  17.27294  34.22915         13.20110  -1.700000  34.92518  34.19290  -0.33707  35.23946  -0.37931  34.26540  34.88294  33.21884
       1  17.23069  33.25509         13.26158  -1.700000  34.88294  33.21884  -0.37931  34.26540  -0.42157  33.29134  34.84068  32.24478
       1  17.18842  32.28103         13.32206  -1.700000  34.84068  32.24478  -0.42157  33.29134  -0.46385  32.31728  34.79840  31.27072
       1  17.14612  31.30696         13.38255  -1.700000  34.79840  31.27072  -0.46385  32.31728  -0.50616  31.34321  34.75609  30.29665
       1  17.10380  30.33290         13.44303  -1.700000  34.75609  30.29665  -0.50616  31.34321  -0.54849  30.36915  34.71376  29.32259
       1  17.06146  29.35884         13.50352  -1.700000  34.71376  29.32259  -0.54849  30.36915  -0.59084  29.39509  34.67141  28.34853
       1  17.01910  28.38478         13.56400  -1.700000  34.67141  28.34853  -0.59084  29.39509  -0.63321  28.42103  34.62904  27.37447
       1  16.97672  27.41072         13.62448  -1.700000  34.62904  27.37447  -0.63321  28.42103  -0.67561  27.44696  34.58664  26.40041
       1  16.93431  26.43665         13.68497  -1.700000  34.58664  26.40041  -0.67561  27.44696  -0.71803  26.47290  34.54422  25.42634
       1  16.89187  25.46259         13.74545  -1.700000  34.54422  25.42634  -0.71803  26.47290  -0.76047  25.49884  34.50178  24.45228
       1  16.84942  24.48853         13.80593  -1.700000  34.50178  24.45228  -0.76047  25.49884  -0.80294  24.52478  34.45931  23.47822
       1  16.80694  23.51447         13.86642  -1.700000  34.45931  23.47822  -0.80294  24.52478  -0.84543  23.55072  34.41682  22.50416
       1  16.76444  22.54041         13.92690  -1.700000  34.41682  22.50416  -0.84543  23.55072  -0.88794  22.57665  34.37431  21.53009
       1  16.72192  21.56634         13.98738  -1.700000  34.37431  21.53009  -0.88794  22.57665  -0.93048  21.60259  34.33178  20.55603
       1  16.67937  20.59228         14.04787  -1.700000  34.33178  20.55603  -0.93048  21.60259  -0.97303  20.62853  34.28922  19.58197
       1  16.63681  19.61822         14.10835  -1.700000  34.28922  19.58197  -0.97303  20.62853  -1.01561  19.65447  34.24664  18.60791
       1  16.59421  18.64416         14.16884  -1.700000  34.24664  18.60791  -1.01561  19.65447  -1.05822  18.68041  34.20403  17.63385
       1  16.55160  17.67009         14.22932  -1.700000  34.20403  17.63385  -1.05822  18.68041  -1.10084  17.70634  34.16141  16.65978
       1  16.50896  16.69603         14.28980  -1.700000  34.16141  16.65978  -1.10084  17.70634  -1.14349  16.73228  34.11876  15.68572
       1  16.46630  15.72197         14.35029  -1.700000  34.11876  15.68572  -1.14349  16.73228  -1.18616  15.75822  34.07609  14.71166
       1  16.42362  14.74791         14.41077  -1.700000  34.07609  14.71166  -1.18616  15.75822  -1.22886  14.78416  34.03339  13.73760
       1  16.38091  13.77385         14.47125  -1.700000  34.03339  13.73760  -1.22886  14.78416  -1.27157  13.81009  33.99068  12.76354
       1  16.33818  12.79978         14.53174  -1.700000  33.99068  12.76354  -1.27157  13.81009  -1.31431  12.83603  33.94794  11.78947
       1  16.29543  11.82572         14.59222  -1.700000  33.94794  11.78947  -1.31431  12.83603  -1.35708  11.86197  33.90517  10.81541
       1  16.25266  10.85166         14.65270  -1.700000  33.90517  10.81541  -1.35708  11.86197  -1.39986  10.88791  33.86239   9.84135
       1  16.20986   9.87760         14.71319  -1.700000  33.86239   9.84135  -1.39986  10.88791  -1.44267   9.91385  33.81958   8.86729
       1  16.16704   8.90354         14.77367  -1.700000  33.81958   8.86729  -1.44267   9.91385  -1.48550   8.93978  33.77675   7.89322
       1  16.12420   7.92947         14.83416  -1.700000  33.77675   7.89322  -1.48550   8.93978  -1.52836   7.96572  33.73389   6.91916
       1  16.08133   6.95541         14.89464  -1.700000  33.73389   6.91916  -1.52836   7.96572  -1.57123   6.99166  33.69102   5.94510
       1  16.03845   5.98135         14.95512  -1.700000  33.69102   5.94510  -1.57123   6.99166  -1.61413   6.01760  33.64812   4.97104
       1  15.99553   5.00729         15.01561  -1.700000  33.64812   4.97104  -1.61413   6.01760  -1.65706   5.04354  33.60520   3.99698
       1  15.95260   4.03322         15.07609  -1.700000  33.60520   3.99698  -1.65706   5.04354  -1.70000   4.06947  33.56225   3.02291
       1  15.90964   3.05916         15.13657  -1.700000  33.56225   3.02291  -1.70000   4.06947  -1.74297   3.09541  33.51928   2.04885
       1  15.86666   2.08510         15.19706  -1.700000  33.51928   2.04885  -1.74297   3.09541  -1.78596   2.12135  33.47629   1.07479
       1  15.82366   1.11104         15.25754  -1.700000  33.47629   1.07479  -1.78596   2.12135  -1.82897   1.14729  33.43328   0.10073
