\wavsamp version 5.0 (Thu May  9 10:19:35 PDT 2002)
\processing time 23:13:45 PST 12/11/2003
\character channelID = 0
| order |x_center |y_center |   wavelength   |  angle   |   x0    |   y0    |   x1    |   y1    |   x2    |   y2    |   x3    |   y3    |
| int   |  real   |  real   |    real        |   real   |  real   |  real   |  real   |  real   |  real   |  real   |  real   |  real   |
       2  62.29292  79.99999          5.12652  -2.400000  79.31008  79.76565  45.33990  81.18942  45.27588  80.23432  79.24606  78.81055
       2  62.22915  79.04488          5.15676  -2.400000  79.24606  78.81055  45.27588  80.23432  45.21236  79.27922  79.18254  77.85544
       2  62.16588  78.08978          5.18700  -2.400000  79.18254  77.85544  45.21236  79.27922  45.14934  78.32411  79.11951  76.90034
       2  62.10310  77.13467          5.21725  -2.400000  79.11951  76.90034  45.14934  78.32411  45.08681  77.36901  79.05698  75.94524
       2  62.04082  76.17957          5.24749  -2.400000  79.05698  75.94524  45.08681  77.36901  45.02477  76.41390  78.99495  74.99013
       2  61.97903  75.22447          5.27773  -2.400000  78.99495  74.99013  45.02477  76.41390  44.96324  75.45880  78.93341  74.03503
       2  61.91774  74.26936          5.30797  -2.400000  78.93341  74.03503  44.96324  75.45880  44.90220  74.50369  78.87237  73.07992
       2  61.85695  73.31426          5.33821  -2.400000  78.87237  73.07992  44.90220  74.50369  44.84165  73.54859  78.81183  72.12482
       2  61.79665  72.35915          5.36846  -2.400000  78.81183  72.12482  44.84165  73.54859  44.78160  72.59349  78.75178  71.16971
       2  61.73685  71.40405          5.39870  -2.400000  78.75178  71.16971  44.78160  72.59349  44.72205  71.63838  78.69222  70.21461
       2  61.67754  70.44894          5.42894  -2.400000  78.69222  70.21461  44.72205  71.63838  44.66299  70.68328  78.63316  69.25951
       2  61.61873  69.49384          5.45918  -2.400000  78.63316  69.25951  44.66299  70.68328  44.60443  69.72817  78.57460  68.30440
       2  61.56042  68.53874          5.48942  -2.400000  78.57460  68.30440  44.60443  69.72817  44.54636  68.77307  78.51654  67.34930
       2  61.50260  67.58363          5.51967  -2.400000  78.51654  67.34930  44.54636  68.77307  44.48879  67.81797  78.45897  66.39419
       2  61.44528  66.62853          5.54991  -2.400000  78.45897  66.39419  44.48879  67.81797  44.43172  66.86286  78.40189  65.43909
       2  61.38845  65.67342          5.58015  -2.400000  78.40189  65.43909  44.43172  66.86286  44.37514  65.90776  78.34532  64.48398
       2  61.33212  64.71832          5.61039  -2.400000  78.34532  64.48398  44.37514  65.90776  44.31906  64.95265  78.28923  63.52888
       2  61.27629  63.76321          5.64063  -2.400000  78.28923  63.52888  44.31906  64.95265  44.26347  63.99755  78.23365  62.57378
       2  61.22095  62.80811          5.67088  -2.400000  78.23365  62.57378  44.26347  63.99755  44.20838  63.04244  78.17856  61.61867
       2  61.16611  61.85301          5.70112  -2.400000  78.17856  61.61867  44.20838  63.04244  44.15379  62.08734  78.12396  60.66357
       2  61.11176  60.89790          5.73136  -2.400000  78.12396  60.66357  44.15379  62.08734  44.09969  61.13224  78.06986  59.70846
       2  61.05791  59.94280          5.76160  -2.400000  78.06986  59.70846  44.09969  61.13224  44.04609  60.17713  78.01626  58.75336
       2  61.00456  58.98769          5.79184  -2.400000  78.01626  58.75336  44.04609  60.17713  43.99298  59.22203  77.96315  57.79825
       2  60.95170  58.03259          5.82209  -2.400000  77.96315  57.79825  43.99298  59.22203  43.94037  58.26692  77.91054  56.84315
       2  60.89934  57.07748          5.85233  -2.400000  77.91054  56.84315  43.94037  58.26692  43.88825  57.31182  77.85843  55.88805
       2  60.84747  56.12238          5.88257  -2.400000  77.85843  55.88805  43.88825  57.31182  43.83663  56.35671  77.80681  54.93294
       2  60.79610  55.16728          5.91281  -2.400000  77.80681  54.93294  43.83663  56.35671  43.78551  55.40161  77.75569  53.97784
       2  60.74522  54.21217          5.94305  -2.400000  77.75569  53.97784  43.78551  55.40161  43.73489  54.44651  77.70506  53.02273
       2  60.69485  53.25707          5.97330  -2.400000  77.70506  53.02273  43.73489  54.44651  43.68475  53.49140  77.65493  52.06763
       2  60.64496  52.30196          6.00354  -2.400000  77.65493  52.06763  43.68475  53.49140  43.63512  52.53630  77.60530  51.11253
       2  60.59558  51.34686          6.03378  -2.400000  77.60530  51.11253  43.63512  52.53630  43.58598  51.58119  77.55616  50.15742
       2  60.54669  50.39176          6.06402  -2.400000  77.55616  50.15742  43.58598  51.58119  43.53734  50.62609  77.50751  49.20232
       2  60.49829  49.43665          6.09426  -2.400000  77.50751  49.20232  43.53734  50.62609  43.48919  49.67098  77.45937  48.24721
       2  60.45039  48.48155          6.12451  -2.400000  77.45937  48.24721  43.48919  49.67098  43.44154  48.71588  77.41172  47.29211
       2  60.40299  47.52644          6.15475  -2.400000  77.41172  47.29211  43.44154  48.71588  43.39438  47.76078  77.36456  46.33700
       2  60.35608  46.57134          6.18499  -2.400000  77.36456  46.33700  43.39438  47.76078  43.34772  46.80567  77.31790  45.38190
       2  60.30967  45.61623          6.21523  -2.400000  77.31790  45.38190  43.34772  46.80567  43.30156  45.85057  77.27174  44.42680
       2  60.26375  44.66113          6.24547  -2.400000  77.27174  44.42680  43.30156  45.85057  43.25589  44.89546  77.22607  43.47169
       2  60.21833  43.70603          6.27572  -2.400000  77.22607  43.47169  43.25589  44.89546  43.21072  43.94036  77.18090  42.51659
       2  60.17341  42.75092          6.30596  -2.400000  77.18090  42.51659  43.21072  43.94036  43.16605  42.98526  77.13622  41.56148
       2  60.12898  41.79582          6.33620  -2.400000  77.13622  41.56148  43.16605  42.98526  43.12187  42.03015  77.09204  40.60638
       2  60.08505  40.84071          6.36644  -2.400000  77.09204  40.60638  43.12187  42.03015  43.07818  41.07505  77.04836  39.65127
       2  60.04162  39.88561          6.39668  -2.400000  77.04836  39.65127  43.07818  41.07505  43.03500  40.11994  77.00517  38.69617
       2  59.99868  38.93050          6.42693  -2.400000  77.00517  38.69617  43.03500  40.11994  42.99230  39.16484  76.96248  37.74107
       2  59.95623  37.97540          6.45717  -2.400000  76.96248  37.74107  42.99230  39.16484  42.95011  38.20973  76.92028  36.78596
       2  59.91428  37.02030          6.48741  -2.400000  76.92028  36.78596  42.95011  38.20973  42.90841  37.25463  76.87858  35.83086
       2  59.87283  36.06519          6.51765  -2.400000  76.87858  35.83086  42.90841  37.25463  42.86720  36.29953  76.83738  34.87575
       2  59.83188  35.11009          6.54789  -2.400000  76.83738  34.87575  42.86720  36.29953  42.82650  35.34442  76.79667  33.92065
       2  59.79142  34.15498          6.57814  -2.400000  76.79667  33.92065  42.82650  35.34442  42.78628  34.38932  76.75646  32.96554
       2  59.75145  33.19988          6.60838  -2.400000  76.75646  32.96554  42.78628  34.38932  42.74657  33.43421  76.71674  32.01044
       2  59.71198  32.24477          6.63862  -2.400000  76.71674  32.01044  42.74657  33.43421  42.70735  32.47911  76.67752  31.05534
       2  59.67301  31.28967          6.66886  -2.400000  76.67752  31.05534  42.70735  32.47911  42.66862  31.52400  76.63880  30.10023
       2  59.63454  30.33457          6.69910  -2.400000  76.63880  30.10023  42.66862  31.52400  42.63040  30.56890  76.60057  29.14513
       2  59.59656  29.37946          6.72935  -2.400000  76.60057  29.14513  42.63040  30.56890  42.59266  29.61380  76.56284  28.19002
       2  59.55907  28.42436          6.75959  -2.400000  76.56284  28.19002  42.59266  29.61380  42.55543  28.65869  76.52560  27.23492
       2  59.52208  27.46925          6.78983  -2.400000  76.52560  27.23492  42.55543  28.65869  42.51869  27.70359  76.48886  26.27982
       2  59.48559  26.51415          6.82007  -2.400000  76.48886  26.27982  42.51869  27.70359  42.48244  26.74848  76.45262  25.32471
       2  59.44959  25.55904          6.85031  -2.400000  76.45262  25.32471  42.48244  26.74848  42.44669  25.79338  76.41687  24.36961
       2  59.41409  24.60394          6.88056  -2.400000  76.41687  24.36961  42.44669  25.79338  42.41144  24.83827  76.38162  23.41450
       2  59.37909  23.64884          6.91080  -2.400000  76.38162  23.41450  42.41144  24.83827  42.37668  23.88317  76.34686  22.45940
       2  59.34458  22.69373          6.94104  -2.400000  76.34686  22.45940  42.37668  23.88317  42.34242  22.92807  76.31260  21.50429
       2  59.31057  21.73863          6.97128  -2.400000  76.31260  21.50429  42.34242  22.92807  42.30866  21.97296  76.27883  20.54919
       2  59.27705  20.78352          7.00152  -2.400000  76.27883  20.54919  42.30866  21.97296  42.27539  21.01786  76.24557  19.59409
       2  59.24403  19.82842          7.03177  -2.400000  76.24557  19.59409  42.27539  21.01786  42.24262  20.06275  76.21279  18.63898
       2  59.21150  18.87332          7.06201  -2.400000  76.21279  18.63898  42.24262  20.06275  42.21034  19.10765  76.18052  17.68388
       2  59.17947  17.91821          7.09225  -2.400000  76.18052  17.68388  42.21034  19.10765  42.17856  18.15255  76.14873  16.72877
       2  59.14794  16.96311          7.12249  -2.400000  76.14873  16.72877  42.17856  18.15255  42.14727  17.19744  76.11745  15.77367
       2  59.11690  16.00800          7.15273  -2.400000  76.11745  15.77367  42.14727  17.19744  42.11648  16.24234  76.08666  14.81856
       2  59.08636  15.05290          7.18298  -2.400000  76.08666  14.81856  42.11648  16.24234  42.08619  15.28723  76.05637  13.86346
       2  59.05632  14.09779          7.21322  -2.400000  76.05637  13.86346  42.08619  15.28723  42.05639  14.33213  76.02657  12.90836
       2  59.02677  13.14269          7.24346  -2.400000  76.02657  12.90836  42.05639  14.33213  42.02709  13.37702  75.99727  11.95325
       2  58.99771  12.18759          7.27370  -2.400000  75.99727  11.95325  42.02709  13.37702  41.99829  12.42192  75.96846  10.99815
       2  58.96916  11.23248          7.30394  -2.400000  75.96846  10.99815  41.99829  12.42192  41.96998  11.46682  75.94015  10.04304
       2  58.94110  10.27738          7.33419  -2.400000  75.94015  10.04304  41.96998  11.46682  41.94216  10.51171  75.91234   9.08794
       2  58.91353   9.32227          7.36443  -2.400000  75.91234   9.08794  41.94216  10.51171  41.91484   9.55661  75.88502   8.13283
       2  58.88646   8.36717          7.39467  -2.400000  75.88502   8.13283  41.91484   9.55661  41.88802   8.60150  75.85820   7.17773
       2  58.85989   7.41206          7.42491  -2.400000  75.85820   7.17773  41.88802   8.60150  41.86170   7.64640  75.83187   6.22263
       2  58.83381   6.45696          7.45515  -2.400000  75.83187   6.22263  41.86170   7.64640  41.83587   6.69129  75.80604   5.26752
       2  58.80823   5.50186          7.48540  -2.400000  75.80604   5.26752  41.83587   6.69129  41.81053   5.73619  75.78071   4.31242
       2  58.78314   4.54675          7.51564  -2.400000  75.78071   4.31242  41.81053   5.73619  41.78570   4.78109  75.75587   3.35731
       2  58.75855   3.59165          7.54588  -2.400000  75.75587   3.35731  41.78570   4.78109  41.76135   3.82598  75.73153   2.40221
       2  58.73446   2.63654          7.57612  -2.400000  75.73153   2.40221  41.76135   3.82598  41.73751   2.87088  75.70768   1.44711
       2  58.71086   1.68144          7.60636  -2.400000  75.70768   1.44711  41.73751   2.87088  41.71416   1.91577  75.68433   0.49200
       2  58.68776   0.72633          7.63661  -2.400000  75.68433   0.49200  41.71416   1.91577  41.69130   0.96067  75.66148  -0.46310
       3  64.31465 127.64841          7.33419  -2.400000  81.33014 127.17906  47.35996 128.60283  47.29948 128.11776  81.26965 126.69399
       3  64.25481 127.16334          7.36443  -2.400000  81.26965 126.69399  47.29948 128.11776  47.24029 127.63269  81.21047 126.20892
       3  64.19627 126.67827          7.39467  -2.400000  81.21047 126.20892  47.24029 127.63269  47.18240 127.14762  81.15258 125.72385
       3  64.13903 126.19320          7.42491  -2.400000  81.15258 125.72385  47.18240 127.14762  47.12580 126.66255  81.09598 125.23878
       3  64.08308 125.70813          7.45515  -2.400000  81.09598 125.23878  47.12580 126.66255  47.07050 126.17748  81.04068 124.75371
       3  64.02843 125.22306          7.48540  -2.400000  81.04068 124.75371  47.07050 126.17748  47.01650 125.69241  80.98667 124.26864
       3  63.97507 124.73799          7.51564  -2.400000  80.98667 124.26864  47.01650 125.69241  46.96379 125.20734  80.93396 123.78357
       3  63.92301 124.25292          7.54588  -2.400000  80.93396 123.78357  46.96379 125.20734  46.91237 124.72227  80.88255 123.29850
       3  63.87224 123.76785          7.57612  -2.400000  80.88255 123.29850  46.91237 124.72227  46.86225 124.23720  80.83243 122.81343
       3  63.82277 123.28278          7.60636  -2.400000  80.83243 122.81343  46.86225 124.23720  46.81343 123.75213  80.78361 122.32836
       3  63.77459 122.79771          7.63661  -2.400000  80.78361 122.32836  46.81343 123.75213  46.76590 123.26706  80.73608 121.84329
       3  63.72771 122.31264          7.66685  -2.400000  80.73608 121.84329  46.76590 123.26706  46.71967 122.78199  80.68984 121.35822
       3  63.68213 121.82757          7.69709  -2.400000  80.68984 121.35822  46.71967 122.78199  46.67473 122.29692  80.64491 120.87315
       3  63.63784 121.34250          7.72733  -2.400000  80.64491 120.87315  46.67473 122.29692  46.63109 121.81185  80.60126 120.38808
       3  63.59484 120.85743          7.75757  -2.400000  80.60126 120.38808  46.63109 121.81185  46.58874 121.32678  80.55892 119.90301
       3  63.55314 120.37236          7.78782  -2.400000  80.55892 119.90301  46.58874 121.32678  46.54769 120.84171  80.51787 119.41794
       3  63.51274 119.88729          7.81806  -2.400000  80.51787 119.41794  46.54769 120.84171  46.50793 120.35664  80.47811 118.93286
       3  63.47363 119.40222          7.84830  -2.400000  80.47811 118.93286  46.50793 120.35664  46.46947 119.87157  80.43965 118.44779
       3  63.43582 118.91715          7.87854  -2.400000  80.43965 118.44779  46.46947 119.87157  46.43231 119.38650  80.40248 117.96272
       3  63.39930 118.43208          7.90878  -2.400000  80.40248 117.96272  46.43231 119.38650  46.39644 118.90143  80.36661 117.47765
       3  63.36408 117.94701          7.93903  -2.400000  80.36661 117.47765  46.39644 118.90143  46.36186 118.41636  80.33204 116.99258
       3  63.33015 117.46193          7.96927  -2.400000  80.33204 116.99258  46.36186 118.41636  46.32858 117.93129  80.29876 116.50751
       3  63.29752 116.97686          7.99951  -2.400000  80.29876 116.50751  46.32858 117.93129  46.29660 117.44622  80.26678 116.02244
       3  63.26618 116.49179          8.02975  -2.400000  80.26678 116.02244  46.29660 117.44622  46.26591 116.96115  80.23609 115.53737
       3  63.23614 116.00672          8.05999  -2.400000  80.23609 115.53737  46.26591 116.96115  46.23652 116.47607  80.20669 115.05230
       3  63.20739 115.52165          8.09024  -2.400000  80.20669 115.05230  46.23652 116.47607  46.20842 115.99100  80.17860 114.56723
       3  63.17994 115.03658          8.12048  -2.400000  80.17860 114.56723  46.20842 115.99100  46.18162 115.50593  80.15179 114.08216
       3  63.15379 114.55151          8.15072  -2.400000  80.15179 114.08216  46.18162 115.50593  46.15611 115.02086  80.12629 113.59709
       3  63.12893 114.06644          8.18096  -2.400000  80.12629 113.59709  46.15611 115.02086  46.13190 114.53579  80.10207 113.11202
       3  63.10537 113.58137          8.21120  -2.400000  80.10207 113.11202  46.13190 114.53579  46.10898 114.05072  80.07916 112.62695
       3  63.08310 113.09630          8.24145  -2.400000  80.07916 112.62695  46.10898 114.05072  46.08736 113.56565  80.05754 112.14188
       3  63.06212 112.61123          8.27169  -2.400000  80.05754 112.14188  46.08736 113.56565  46.06703 113.08058  80.03721 111.65681
       3  63.04245 112.12616          8.30193  -2.400000  80.03721 111.65681  46.06703 113.08058  46.04800 112.59551  80.01818 111.17174
       3  63.02406 111.64109          8.33217  -2.400000  80.01818 111.17174  46.04800 112.59551  46.03027 112.11044  80.00045 110.68667
       3  63.00698 111.15602          8.36241  -2.400000  80.00045 110.68667  46.03027 112.11044  46.01383 111.62537  79.98401 110.20160
       3  62.99118 110.67095          8.39266  -2.400000  79.98401 110.20160  46.01383 111.62537  45.99869 111.14030  79.96886 109.71653
       3  62.97669 110.18588          8.42290  -2.400000  79.96886 109.71653  45.99869 111.14030  45.98484 110.65523  79.95501 109.23146
       3  62.96349 109.70081          8.45314  -2.400000  79.95501 109.23146  45.98484 110.65523  45.97228 110.17016  79.94246 108.74639
       3  62.95158 109.21574          8.48338  -2.400000  79.94246 108.74639  45.97228 110.17016  45.96102 109.68509  79.93120 108.26132
       3  62.94097 108.73067          8.51362  -2.400000  79.93120 108.26132  45.96102 109.68509  45.95106 109.20002  79.92124 107.77625
       3  62.93165 108.24560          8.54387  -2.400000  79.92124 107.77625  45.95106 109.20002  45.94239 108.71495  79.91257 107.29118
       3  62.92363 107.76053          8.57411  -2.400000  79.91257 107.29118  45.94239 108.71495  45.93502 108.22988  79.90520 106.80611
       3  62.91691 107.27546          8.60435  -2.400000  79.90520 106.80611  45.93502 108.22988  45.92895 107.74481  79.89912 106.32104
       3  62.91148 106.79039          8.63459  -2.400000  79.89912 106.32104  45.92895 107.74481  45.92416 107.25974  79.89434 105.83597
       3  62.90735 106.30532          8.66483  -2.400000  79.89434 105.83597  45.92416 107.25974  45.92068 106.77467  79.89085 105.35090
       1  21.18068 126.95461          7.48540  -1.700000  38.19315 126.93731   4.20812 127.94597   4.16820 126.97190  38.15323 125.96325
       1  21.14074 125.98054          7.54588  -1.700000  38.15323 125.96325   4.16820 126.97190   4.12825 125.99784  38.11329 124.98918
       1  21.10079 125.00648          7.60636  -1.700000  38.11329 124.98918   4.12825 125.99784   4.08829 125.02377  38.07332 124.01512
       1  21.06081 124.03241          7.66685  -1.700000  38.07332 124.01512   4.08829 125.02377   4.04830 124.04971  38.03333 123.04105
       1  21.02081 123.05835          7.72733  -1.700000  38.03333 123.04105   4.04830 124.04971   4.00829 123.07564  37.99332 122.06699
       1  20.98079 122.08428          7.78781  -1.700000  37.99332 122.06699   4.00829 123.07564   3.96825 122.10157  37.95329 121.09292
       1  20.94074 121.11022          7.84830  -1.700000  37.95329 121.09292   3.96825 122.10157   3.92819 121.12751  37.91323 120.11886
       1  20.90067 120.13615          7.90878  -1.700000  37.91323 120.11886   3.92819 121.12751   3.88811 120.15344  37.87315 119.14479
       1  20.86058 119.16209          7.96926  -1.700000  37.87315 119.14479   3.88811 120.15344   3.84801 119.17938  37.83305 118.17073
       1  20.82047 118.18802          8.02975  -1.700000  37.83305 118.17073   3.84801 119.17938   3.80789 118.20531  37.79292 117.19666
       1  20.78033 117.21395          8.09023  -1.700000  37.79292 117.19666   3.80789 118.20531   3.76774 117.23125  37.75277 116.22260
       1  20.74017 116.23989          8.15072  -1.700000  37.75277 116.22260   3.76774 117.23125   3.72757 116.25718  37.71260 115.24853
       1  20.69999 115.26582          8.21120  -1.700000  37.71260 115.24853   3.72757 116.25718   3.68738 115.28312  37.67241 114.27446
       1  20.65979 114.29176          8.27168  -1.700000  37.67241 114.27446   3.68738 115.28312   3.64716 114.30905  37.63220 113.30040
       1  20.61956 113.31769          8.33217  -1.700000  37.63220 113.30040   3.64716 114.30905   3.60692 113.33499  37.59196 112.32633
       1  20.57931 112.34363          8.39265  -1.700000  37.59196 112.32633   3.60692 113.33499   3.56666 112.36092  37.55170 111.35227
       1  20.53904 111.36956          8.45313  -1.700000  37.55170 111.35227   3.56666 112.36092   3.52638 111.38686  37.51141 110.37820
       1  20.49874 110.39550          8.51362  -1.700000  37.51141 110.37820   3.52638 111.38686   3.48607 110.41279  37.47111 109.40414
       1  20.45843 109.42143          8.57410  -1.700000  37.47111 109.40414   3.48607 110.41279   3.44574 109.43872  37.43078 108.43007
       1  20.41809 108.44737          8.63458  -1.700000  37.43078 108.43007   3.44574 109.43872   3.40539 108.46466  37.39043 107.45601
       1  20.37772 107.47330          8.69507  -1.700000  37.39043 107.45601   3.40539 108.46466   3.36502 107.49059  37.35005 106.48194
       1  20.33734 106.49924          8.75555  -1.700000  37.35005 106.48194   3.36502 107.49059   3.32462 106.51653  37.30965 105.50788
       1  20.29693 105.52517          8.81604  -1.700000  37.30965 105.50788   3.32462 106.51653   3.28420 105.54246  37.26923 104.53381
       1  20.25650 104.55110          8.87652  -1.700000  37.26923 104.53381   3.28420 105.54246   3.24376 104.56840  37.22879 103.55975
       1  20.21604 103.57704          8.93700  -1.700000  37.22879 103.55975   3.24376 104.56840   3.20329 103.59433  37.18833 102.58568
       1  20.17557 102.60297          8.99749  -1.700000  37.18833 102.58568   3.20329 103.59433   3.16280 102.62027  37.14784 101.61162
       1  20.13507 101.62891          9.05797  -1.700000  37.14784 101.61162   3.16280 102.62027   3.12229 101.64620  37.10733 100.63755
       1  20.09455 100.65484          9.11845  -1.700000  37.10733 100.63755   3.12229 101.64620   3.08176 100.67214  37.06679  99.66348
       1  20.05400  99.68078          9.17894  -1.700000  37.06679  99.66348   3.08176 100.67214   3.04120  99.69807  37.02624  98.68942
       1  20.01343  98.70671          9.23942  -1.700000  37.02624  98.68942   3.04120  99.69807   3.00063  98.72401  36.98566  97.71535
       1  19.97285  97.73265          9.29990  -1.700000  36.98566  97.71535   3.00063  98.72401   2.96002  97.74994  36.94506  96.74129
       1  19.93223  96.75858          9.36039  -1.700000  36.94506  96.74129   2.96002  97.74994   2.91940  96.77588  36.90444  95.76722
       1  19.89160  95.78452          9.42087  -1.700000  36.90444  95.76722   2.91940  96.77588   2.87875  95.80181  36.86379  94.79316
       1  19.85094  94.81045          9.48136  -1.700000  36.86379  94.79316   2.87875  95.80181   2.83808  94.82774  36.82312  93.81909
       1  19.81026  93.83639          9.54184  -1.700000  36.82312  93.81909   2.83808  94.82774   2.79739  93.85368  36.78243  92.84503
       1  19.76956  92.86232          9.60232  -1.700000  36.78243  92.84503   2.79739  93.85368   2.75668  92.87961  36.74171  91.87096
       1  19.72883  91.88825          9.66281  -1.700000  36.74171  91.87096   2.75668  92.87961   2.71594  91.90555  36.70098  90.89690
       1  19.68808  90.91419          9.72329  -1.700000  36.70098  90.89690   2.71594  91.90555   2.67518  90.93148  36.66022  89.92283
       1  19.64731  89.94012          9.78377  -1.700000  36.66022  89.92283   2.67518  90.93148   2.63440  89.95742  36.61943  88.94877
       1  19.60652  88.96606          9.84426  -1.700000  36.61943  88.94877   2.63440  89.95742   2.59359  88.98335  36.57863  87.97470
       1  19.56570  87.99199          9.90474  -1.700000  36.57863  87.97470   2.59359  88.98335   2.55277  88.00929  36.53780  87.00063
       1  19.52486  87.01793          9.96522  -1.700000  36.53780  87.00063   2.55277  88.00929   2.51192  87.03522  36.49695  86.02657
       1  19.48400  86.04386         10.02571  -1.700000  36.49695  86.02657   2.51192  87.03522   2.47104  86.06116  36.45608  85.05250
       1  19.44311  85.06980         10.08619  -1.700000  36.45608  85.05250   2.47104  86.06116   2.43015  85.08709  36.41518  84.07844
       1  19.40221  84.09573         10.14668  -1.700000  36.41518  84.07844   2.43015  85.08709   2.38923  84.11303  36.37426  83.10437
       1  19.36128  83.12167         10.20716  -1.700000  36.37426  83.10437   2.38923  84.11303   2.34829  83.13896  36.33332  82.13031
       1  19.32032  82.14760         10.26764  -1.700000  36.33332  82.13031   2.34829  83.13896   2.30732  82.16489  36.29236  81.15624
       1  19.27935  81.17354         10.32813  -1.700000  36.29236  81.15624   2.30732  82.16489   2.26634  81.19083  36.25137  80.18218
       1  19.23835  80.19947         10.38861  -1.700000  36.25137  80.18218   2.26634  81.19083   2.22533  80.21676  36.21036  79.20811
       1  19.19733  79.22541         10.44909  -1.700000  36.21036  79.20811   2.22533  80.21676   2.18429  79.24270  36.16933  78.23405
       1  19.15629  78.25134         10.50958  -1.700000  36.16933  78.23405   2.18429  79.24270   2.14324  78.26863  36.12828  77.25998
       1  19.11522  77.27727         10.57006  -1.700000  36.12828  77.25998   2.14324  78.26863   2.10216  77.29457  36.08720  76.28592
       1  19.07413  76.30321         10.63054  -1.700000  36.08720  76.28592   2.10216  77.29457   2.06106  76.32050  36.04610  75.31185
       1  19.03302  75.32914         10.69103  -1.700000  36.04610  75.31185   2.06106  76.32050   2.01994  75.34644  36.00498  74.33778
       1  18.99189  74.35508         10.75151  -1.700000  36.00498  74.33778   2.01994  75.34644   1.97879  74.37237  35.96383  73.36372
       1  18.95073  73.38101         10.81200  -1.700000  35.96383  73.36372   1.97879  74.37237   1.93763  73.39831  35.92266  72.38965
       1  18.90955  72.40695         10.87248  -1.700000  35.92266  72.38965   1.93763  73.39831   1.89644  72.42424  35.88147  71.41559
       1  18.86835  71.43288         10.93296  -1.700000  35.88147  71.41559   1.89644  72.42424   1.85522  71.45018  35.84026  70.44152
       1  18.82713  70.45882         10.99345  -1.700000  35.84026  70.44152   1.85522  71.45018   1.81399  70.47611  35.79902  69.46746
       1  18.78588  69.48475         11.05393  -1.700000  35.79902  69.46746   1.81399  70.47611   1.77273  69.50205  35.75776  68.49339
       1  18.74461  68.51069         11.11441  -1.700000  35.75776  68.49339   1.77273  69.50205   1.73145  68.52798  35.71648  67.51933
       1  18.70332  67.53662         11.17490  -1.700000  35.71648  67.51933   1.73145  68.52798   1.69014  67.55391  35.67518  66.54526
       1  18.66200  66.56256         11.23538  -1.700000  35.67518  66.54526   1.69014  67.55391   1.64882  66.57985  35.63385  65.57120
       1  18.62066  65.58849         11.29586  -1.700000  35.63385  65.57120   1.64882  66.57985   1.60747  65.60578  35.59250  64.59713
       1  18.57930  64.61442         11.35635  -1.700000  35.59250  64.59713   1.60747  65.60578   1.56609  64.63172  35.55113  63.62307
       1  18.53792  63.64036         11.41683  -1.700000  35.55113  63.62307   1.56609  64.63172   1.52470  63.65765  35.50974  62.64900
       1  18.49651  62.66629         11.47732  -1.700000  35.50974  62.64900   1.52470  63.65765   1.48328  62.68359  35.46832  61.67494
       1  18.45508  61.69223         11.53780  -1.700000  35.46832  61.67494   1.48328  62.68359   1.44184  61.70952  35.42688  60.70087
       1  18.41363  60.71816         11.59828  -1.700000  35.42688  60.70087   1.44184  61.70952   1.40038  60.73546  35.38542  59.72680
       1  18.37216  59.74410         11.65877  -1.700000  35.38542  59.72680   1.40038  60.73546   1.35889  59.76139  35.34393  58.75274
       1  18.33066  58.77003         11.71925  -1.700000  35.34393  58.75274   1.35889  59.76139   1.31739  58.78733  35.30242  57.77867
       1  18.28914  57.79597         11.77973  -1.700000  35.30242  57.77867   1.31739  58.78733   1.27586  57.81326  35.26089  56.80461
       1  18.24760  56.82190         11.84022  -1.700000  35.26089  56.80461   1.27586  57.81326   1.23430  56.83920  35.21934  55.83054
       1  18.20603  55.84784         11.90070  -1.700000  35.21934  55.83054   1.23430  56.83920   1.19273  55.86513  35.17776  54.85648
       1  18.16445  54.87377         11.96118  -1.700000  35.17776  54.85648   1.19273  55.86513   1.15113  54.89106  35.13616  53.88241
       1  18.12284  53.89971         12.02167  -1.700000  35.13616  53.88241   1.15113  54.89106   1.10951  53.91700  35.09454  52.90835
       1  18.08120  52.92564         12.08215  -1.700000  35.09454  52.90835   1.10951  53.91700   1.06786  52.94293  35.05290  51.93428
       1  18.03955  51.95158         12.14264  -1.700000  35.05290  51.93428   1.06786  52.94293   1.02620  51.96887  35.01123  50.96022
       1  17.99787  50.97751         12.20312  -1.700000  35.01123  50.96022   1.02620  51.96887   0.98451  50.99480  34.96954  49.98615
       1  17.95617  50.00344         12.26360  -1.700000  34.96954  49.98615   0.98451  50.99480   0.94279  50.02074  34.92783  49.01209
       1  17.91445  49.02938         12.32409  -1.700000  34.92783  49.01209   0.94279  50.02074   0.90106  49.04667  34.88609  48.03802
       1  17.87270  48.05531         12.38457  -1.700000  34.88609  48.03802   0.90106  49.04667   0.85930  48.07261  34.84434  47.06395
       1  17.83093  47.08125         12.44505  -1.700000  34.84434  47.06395   0.85930  48.07261   0.81752  47.09854  34.80256  46.08989
       1  17.78914  46.10718         12.50554  -1.700000  34.80256  46.08989   0.81752  47.09854   0.77572  46.12448  34.76075  45.11582
       1  17.74733  45.13312         12.56602  -1.700000  34.76075  45.11582   0.77572  46.12448   0.73389  45.15041  34.71893  44.14176
       1  17.70549  44.15905         12.62650  -1.700000  34.71893  44.14176   0.73389  45.15041   0.69205  44.17635  34.67708  43.16769
       1  17.66363  43.18499         12.68699  -1.700000  34.67708  43.16769   0.69205  44.17635   0.65017  43.20228  34.63521  42.19363
       1  17.62175  42.21092         12.74747  -1.700000  34.63521  42.19363   0.65017  43.20228   0.60828  42.22821  34.59332  41.21956
       1  17.57984  41.23686         12.80795  -1.700000  34.59332  41.21956   0.60828  42.22821   0.56636  41.25415  34.55140  40.24550
       1  17.53792  40.26279         12.86844  -1.700000  34.55140  40.24550   0.56636  41.25415   0.52443  40.28008  34.50946  39.27143
       1  17.49597  39.28873         12.92892  -1.700000  34.50946  39.27143   0.52443  40.28008   0.48246  39.30602  34.46750  38.29737
       1  17.45399  38.31466         12.98941  -1.700000  34.46750  38.29737   0.48246  39.30602   0.44048  38.33195  34.42552  37.32330
       1  17.41200  37.34059         13.04989  -1.700000  34.42552  37.32330   0.44048  38.33195   0.39847  37.35789  34.38351  36.34924
       1  17.36998  36.36653         13.11037  -1.700000  34.38351  36.34924   0.39847  37.35789   0.35644  36.38382  34.34148  35.37517
       1  17.32794  35.39246         13.17086  -1.700000  34.34148  35.37517   0.35644  36.38382   0.31439  35.40976  34.29943  34.40111
       1  17.28587  34.41840         13.23134  -1.700000  34.29943  34.40111   0.31439  35.40976   0.27232  34.43569  34.25735  33.42704
       1  17.24379  33.44433         13.29182  -1.700000  34.25735  33.42704   0.27232  34.43569   0.23022  33.46163  34.21525  32.45297
       1  17.20168  32.47027         13.35231  -1.700000  34.21525  32.45297   0.23022  33.46163   0.18810  32.48756  34.17313  31.47891
       1  17.15955  31.49620         13.41279  -1.700000  34.17313  31.47891   0.18810  32.48756   0.14596  31.51350  34.13099  30.50484
       1  17.11739  30.52214         13.47327  -1.700000  34.13099  30.50484   0.14596  31.51350   0.10379  30.53943  34.08883  29.53078
       1  17.07522  29.54807         13.53376  -1.700000  34.08883  29.53078   0.10379  30.53943   0.06160  29.56537  34.04664  28.55671
       1  17.03302  28.57401         13.59424  -1.700000  34.04664  28.55671   0.06160  29.56537   0.01939  28.59130  34.00443  27.58265
       1  16.99080  27.59994         13.65473  -1.700000  34.00443  27.58265   0.01939  28.59130  -0.02284  27.61723  33.96219  26.60858
       1  16.94855  26.62588         13.71521  -1.700000  33.96219  26.60858  -0.02284  27.61723  -0.06510  26.64317  33.91994  25.63452
       1  16.90628  25.65181         13.77569  -1.700000  33.91994  25.63452  -0.06510  26.64317  -0.10738  25.66910  33.87766  24.66045
       1  16.86399  24.67774         13.83618  -1.700000  33.87766  24.66045  -0.10738  25.66910  -0.14968  24.69504  33.83536  23.68639
       1  16.82168  23.70368         13.89666  -1.700000  33.83536  23.68639  -0.14968  24.69504  -0.19200  23.72097  33.79303  22.71232
       1  16.77934  22.72961         13.95714  -1.700000  33.79303  22.71232  -0.19200  23.72097  -0.23435  22.74691  33.75069  21.73826
       1  16.73699  21.75555         14.01763  -1.700000  33.75069  21.73826  -0.23435  22.74691  -0.27672  21.77284  33.70832  20.76419
       1  16.69461  20.78148         14.07811  -1.700000  33.70832  20.76419  -0.27672  21.77284  -0.31911  20.79878  33.66592  19.79012
       1  16.65220  19.80742         14.13859  -1.700000  33.66592  19.79012  -0.31911  20.79878  -0.36153  19.82471  33.62351  18.81606
       1  16.60978  18.83335         14.19908  -1.700000  33.62351  18.81606  -0.36153  19.82471  -0.40396  18.85065  33.58107  17.84199
       1  16.56733  17.85929         14.25956  -1.700000  33.58107  17.84199  -0.40396  18.85065  -0.44642  17.87658  33.53861  16.86793
       1  16.52485  16.88522         14.32005  -1.700000  33.53861  16.86793  -0.44642  17.87658  -0.48891  16.90252  33.49613  15.89386
       1  16.48236  15.91116         14.38053  -1.700000  33.49613  15.89386  -0.48891  16.90252  -0.53141  15.92845  33.45362  14.91980
       1  16.43984  14.93709         14.44101  -1.700000  33.45362  14.91980  -0.53141  15.92845  -0.57394  14.95438  33.41109  13.94573
       1  16.39730  13.96303         14.50150  -1.700000  33.41109  13.94573  -0.57394  14.95438  -0.61649  13.98032  33.36854  12.97167
       1  16.35474  12.98896         14.56198  -1.700000  33.36854  12.97167  -0.61649  13.98032  -0.65907  13.00625  33.32597  11.99760
       1  16.31216  12.01490         14.62246  -1.700000  33.32597  11.99760  -0.65907  13.00625  -0.70166  12.03219  33.28337  11.02354
       1  16.26955  11.04083         14.68295  -1.700000  33.28337  11.02354  -0.70166  12.03219  -0.74428  11.05812  33.24075  10.04947
       1  16.22692  10.06676         14.74343  -1.700000  33.24075  10.04947  -0.74428  11.05812  -0.78692  10.08406  33.19811   9.07541
       1  16.18427   9.09270         14.80391  -1.700000  33.19811   9.07541  -0.78692  10.08406  -0.82959   9.10999  33.15545   8.10134
       1  16.14159   8.11863         14.86440  -1.700000  33.15545   8.10134  -0.82959   9.10999  -0.87227   8.13593  33.11276   7.12727
       1  16.09889   7.14457         14.92488  -1.700000  33.11276   7.12727  -0.87227   8.13593  -0.91498   7.16186  33.07005   6.15321
       1  16.05617   6.17050         14.98537  -1.700000  33.07005   6.15321  -0.91498   7.16186  -0.95772   6.18780  33.02732   5.17914
       1  16.01343   5.19644         15.04585  -1.700000  33.02732   5.17914  -0.95772   6.18780  -1.00047   5.21373  32.98456   4.20508
       1  15.97066   4.22237         15.10633  -1.700000  32.98456   4.20508  -1.00047   5.21373  -1.04325   4.23967  32.94179   3.23101
       1  15.92787   3.24831         15.16682  -1.700000  32.94179   3.23101  -1.04325   4.23967  -1.08605   3.26560  32.89899   2.25695
       1  15.88506   2.27424         15.22730  -1.700000  32.89899   2.25695  -1.08605   3.26560  -1.12887   2.29154  32.85616   1.28288
       1  15.84223   1.30018         15.28778  -1.700000  32.85616   1.28288  -1.12887   2.29154  -1.17172   1.31747  32.81332   0.30882
       1  15.79937   0.32611         15.34827  -1.700000  32.81332   0.30882  -1.17172   1.31747  -1.21459   0.34340  32.77045  -0.66525
