\comment SH "Franken" ordfind table for S15.2, 03 Jan 2007
\comment all b0, b1, b2 coefficients are changed based on Simple Optical Model
\comment except order 11 manually shifted from model by -0.3 pixels
\comment Orders 11-15: a0, a1, a2 coefficients are from new measurements of profiles
\comment Orders 16-20: a0, a1 coefficients from S13 wavsamp
\character channelID = 1
| order | wavelength_center |  a5   | a4     | a3    |  a2       |    a1     | a0        |  b5       | b4          | b3        |  b2      |    b1       | b0       | wavelength_min | wavelength_max | width_search |  width_found  |
| int   | real              |  real | real   | real  |  real     |  real     | real      |  real     | real        | real      |  real    |    real     | real     | real           | real           | real         |  real         |
 11         18.6561          0.0000  0.000    0.0000  70.033193   -63.657572    9.100855  0.00000000    0.00000000  0.00000000  -43.790981  -1301.564247  63.983126        17.7346      19.5740           8.5000e+00     5.00000e+00
 12         17.1507          0.0000  0.000    0.0000  75.611800   -47.625684   29.589921  0.00000000    0.00000000  0.00000000  -42.077783  -1300.630108  63.504814        16.3006      17.9828           8.5000e+00     5.00000e+00
 13         15.8620          0.0000  0.000    0.0000  70.873488   -33.194174   47.075295  0.00000000    0.00000000  0.00000000  -40.769869  -1299.415844  63.420056        15.0668      16.6447           8.5000e+00     5.10000e+00
 14         14.7508          0.0000  0.000    0.0000  60.033250   -21.706134   62.141590  0.00000000    0.00000000  0.00000000  -39.576431  -1298.307274  63.513705        14.0152      15.4761           8.5000e+00     5.00000e+00
 15         13.7864          0.0000  0.000    0.0000  63.301146   -11.225617   75.255003  0.00000000    0.00000000  0.00000000  -38.823874  -1297.626877  63.423359        13.0986      14.4622           8.5000e+00     5.05000e+00
 16         12.9127          0.0000  0.000    0.0000   0.000000    -6.9080     86.9934    0.00000000    0.00000000  0.00000000  -38.339485  -1294.208444  66.079746        12.2926      13.5738           8.5000e+00     5.00000e+00
 17         12.1306          0.0000  0.000    0.0000   0.000000     7.4467     97.1922    0.00000000    0.00000000  0.00000000  -35.948706  -1289.857231  69.720649        11.5797      12.7323           8.5000e+00     5.00000e+00
 18         11.4455          0.0000  0.000    0.0000   0.000000    13.2843    106.2438    0.00000000    0.00000000  0.00000000  -34.071638  -1286.992945  72.057961        10.9457      11.9823           8.5000e+00     5.00000e+00
 19         10.8268          0.0000  0.000    0.0000   0.000000    19.5664    114.3122    0.00000000    0.00000000  0.00000000  -31.826031  -1283.641469  74.937692        10.3754      11.3010           8.5000e+00     5.75000e+00
 20         10.2749          0.0000  0.000    0.0000   0.000000    26.7573    121.5256    0.00000000    0.00000000  0.00000000  -30.495777  -1281.128058  77.089707         9.8635      10.7060           8.5000e+00     5.75000e+00
