\wavsamp version 5.1 (Wed Apr 20 08:45:04 PDT 2005)
\processing time 13:30:49 PST 04/26/2005
\character channelID = 0
| order |x_center |y_center |   wavelength   |  angle   |   x0    |   y0    |   x1    |   y1    |   x2    |   y2    |   x3    |   y3    |
| int   |  real   |  real   |    real        |   real   |  real   |  real   |  real   |  real   |  real   |  real   |  real   |  real   |
       2  62.26066  80.25328          5.12652  -2.400000  79.91611  80.00265  44.66928  81.47993  44.60532  80.50392  79.85216  79.02664
       2  62.19695  79.27727          5.15676  -2.400000  79.85216  79.02664  44.60532  80.50392  44.54187  79.52791  79.78870  78.05063
       2  62.13374  78.30126          5.18700  -2.400000  79.78870  78.05063  44.54187  79.52791  44.47891  78.55190  79.72574  77.07462
       2  62.07103  77.32526          5.21725  -2.400000  79.72574  77.07462  44.47891  78.55190  44.41645  77.57589  79.66328  76.09861
       2  62.00882  76.34925          5.24749  -2.400000  79.66328  76.09861  44.41645  77.57589  44.35449  76.59988  79.60132  75.12260
       2  61.94711  75.37324          5.27773  -2.400000  79.60132  75.12260  44.35449  76.59988  44.29302  75.62387  79.53986  74.14659
       2  61.88590  74.39723          5.30797  -2.400000  79.53986  74.14659  44.29302  75.62387  44.23206  74.64786  79.47889  73.17058
       2  61.82518  73.42122          5.33821  -2.400000  79.47889  73.17058  44.23206  74.64786  44.17160  73.67186  79.41843  72.19458
       2  61.76497  72.44521          5.36846  -2.400000  79.41843  72.19458  44.17160  73.67186  44.11163  72.69585  79.35846  71.21857
       2  61.70525  71.46920          5.39870  -2.400000  79.35846  71.21857  44.11163  72.69585  44.05216  71.71984  79.29900  70.24256
       2  61.64603  70.49319          5.42894  -2.400000  79.29900  70.24256  44.05216  71.71984  43.99320  70.74383  79.24003  69.26655
       2  61.58732  69.51718          5.45918  -2.400000  79.24003  69.26655  43.99320  70.74383  43.93473  69.76782  79.18156  68.29054
       2  61.52910  68.54117          5.48942  -2.400000  79.18156  68.29054  43.93473  69.76782  43.87676  68.79181  79.12359  67.31453
       2  61.47138  67.56517          5.51967  -2.400000  79.12359  67.31453  43.87676  68.79181  43.81929  67.81580  79.06612  66.33852
       2  61.41415  66.58916          5.54991  -2.400000  79.06612  66.33852  43.81929  67.81580  43.76231  66.83979  79.00915  65.36251
       2  61.35743  65.61315          5.58015  -2.400000  79.00915  65.36251  43.76231  66.83979  43.70584  65.86378  78.95267  64.38650
       2  61.30121  64.63714          5.61039  -2.400000  78.95267  64.38650  43.70584  65.86378  43.64987  64.88777  78.89670  63.41049
       2  61.24548  63.66113          5.64063  -2.400000  78.89670  63.41049  43.64987  64.88777  43.59439  63.91177  78.84122  62.43449
       2  61.19026  62.68512          5.67088  -2.400000  78.84122  62.43449  43.59439  63.91177  43.53941  62.93576  78.78625  61.45848
       2  61.13553  61.70911          5.70112  -2.400000  78.78625  61.45848  43.53941  62.93576  43.48494  61.95975  78.73177  60.48247
       2  61.08130  60.73310          5.73136  -2.400000  78.73177  60.48247  43.48494  61.95975  43.43096  60.98374  78.67779  59.50646
       2  61.02757  59.75709          5.76160  -2.400000  78.67779  59.50646  43.43096  60.98374  43.37748  60.00773  78.62431  58.53045
       2  60.97434  58.78108          5.79184  -2.400000  78.62431  58.53045  43.37748  60.00773  43.32450  59.03172  78.57133  57.55444
       2  60.92161  57.80508          5.82209  -2.400000  78.57133  57.55444  43.32450  59.03172  43.27202  58.05571  78.51885  56.57843
       2  60.86938  56.82907          5.85233  -2.400000  78.51885  56.57843  43.27202  58.05571  43.22003  57.07970  78.46687  55.60242
       2  60.81764  55.85306          5.88257  -2.400000  78.46687  55.60242  43.22003  57.07970  43.16855  56.10369  78.41538  54.62641
       2  60.76641  54.87705          5.91281  -2.400000  78.41538  54.62641  43.16855  56.10369  43.11756  55.12768  78.36440  53.65040
       2  60.71567  53.90104          5.94305  -2.400000  78.36440  53.65040  43.11756  55.12768  43.06708  54.15168  78.31391  52.67440
       2  60.66544  52.92503          5.97330  -2.400000  78.31391  52.67440  43.06708  54.15168  43.01709  53.17567  78.26392  51.69839
       2  60.61570  51.94902          6.00354  -2.400000  78.26392  51.69839  43.01709  53.17567  42.96760  52.19966  78.21443  50.72238
       2  60.56646  50.97301          6.03378  -2.400000  78.21443  50.72238  42.96760  52.19966  42.91861  51.22365  78.16544  49.74637
       2  60.51772  49.99700          6.06402  -2.400000  78.16544  49.74637  42.91861  51.22365  42.87012  50.24764  78.11695  48.77036
       2  60.46948  49.02099          6.09426  -2.400000  78.11695  48.77036  42.87012  50.24764  42.82213  49.27163  78.06896  47.79435
       2  60.42174  48.04499          6.12451  -2.400000  78.06896  47.79435  42.82213  49.27163  42.77463  48.29562  78.02147  46.81834
       2  60.37449  47.06898          6.15475  -2.400000  78.02147  46.81834  42.77463  48.29562  42.72764  47.31961  77.97447  45.84233
       2  60.32775  46.09297          6.18499  -2.400000  77.97447  45.84233  42.72764  47.31961  42.68115  46.34360  77.92798  44.86632
       2  60.28150  45.11696          6.21523  -2.400000  77.92798  44.86632  42.68115  46.34360  42.63515  45.36759  77.88198  43.89031
       2  60.23575  44.14095          6.24547  -2.400000  77.88198  43.89031  42.63515  45.36759  42.58965  44.39159  77.83648  42.91431
       2  60.19051  43.16494          6.27572  -2.400000  77.83648  42.91431  42.58965  44.39159  42.54465  43.41558  77.79149  41.93830
       2  60.14576  42.18893          6.30596  -2.400000  77.79149  41.93830  42.54465  43.41558  42.50015  42.43957  77.74699  40.96229
       2  60.10151  41.21292          6.33620  -2.400000  77.74699  40.96229  42.50015  42.43957  42.45615  41.46356  77.70299  39.98628
       2  60.05776  40.23691          6.36644  -2.400000  77.70299  39.98628  42.45615  41.46356  42.41265  40.48755  77.65948  39.01027
       2  60.01450  39.26090          6.39668  -2.400000  77.65948  39.01027  42.41265  40.48755  42.36965  39.51154  77.61648  38.03426
       2  59.97175  38.28490          6.42693  -2.400000  77.61648  38.03426  42.36965  39.51154  42.32714  38.53553  77.57398  37.05825
       2  59.92950  37.30889          6.45717  -2.400000  77.57398  37.05825  42.32714  38.53553  42.28514  37.55952  77.53197  36.08224
       2  59.88774  36.33288          6.48741  -2.400000  77.53197  36.08224  42.28514  37.55952  42.24363  36.58351  77.49047  35.10623
       2  59.84648  35.35687          6.51765  -2.400000  77.49047  35.10623  42.24363  36.58351  42.20262  35.60750  77.44946  34.13022
       2  59.80572  34.38086          6.54789  -2.400000  77.44946  34.13022  42.20262  35.60750  42.16212  34.63150  77.40895  33.15422
       2  59.76547  33.40485          6.57814  -2.400000  77.40895  33.15422  42.16212  34.63150  42.12211  33.65549  77.36894  32.17821
       2  59.72571  32.42884          6.60838  -2.400000  77.36894  32.17821  42.12211  33.65549  42.08260  32.67948  77.32943  31.20220
       2  59.68644  31.45283          6.63862  -2.400000  77.32943  31.20220  42.08260  32.67948  42.04358  31.70347  77.29042  30.22619
       2  59.64768  30.47682          6.66886  -2.400000  77.29042  30.22619  42.04358  31.70347  42.00507  30.72746  77.25190  29.25018
       2  59.60942  29.50081          6.69910  -2.400000  77.25190  29.25018  42.00507  30.72746  41.96706  29.75145  77.21389  28.27417
       2  59.57165  28.52481          6.72935  -2.400000  77.21389  28.27417  41.96706  29.75145  41.92954  28.77544  77.17638  27.29816
       2  59.53439  27.54880          6.75959  -2.400000  77.17638  27.29816  41.92954  28.77544  41.89253  27.79943  77.13936  26.32215
       2  59.49762  26.57279          6.78983  -2.400000  77.13936  26.32215  41.89253  27.79943  41.85601  26.82342  77.10284  25.34614
       2  59.46135  25.59678          6.82007  -2.400000  77.10284  25.34614  41.85601  26.82342  41.81999  25.84741  77.06682  24.37013
       2  59.42559  24.62077          6.85031  -2.400000  77.06682  24.37013  41.81999  25.84741  41.78447  24.87141  77.03130  23.39413
       2  59.39032  23.64476          6.88056  -2.400000  77.03130  23.39413  41.78447  24.87141  41.74945  23.89540  76.99628  22.41812
       2  59.35554  22.66875          6.91080  -2.400000  76.99628  22.41812  41.74945  23.89540  41.71493  22.91939  76.96176  21.44211
       2  59.32127  21.69274          6.94104  -2.400000  76.96176  21.44211  41.71493  22.91939  41.68091  21.94338  76.92774  20.46610
       2  59.28750  20.71673          6.97128  -2.400000  76.92774  20.46610  41.68091  21.94338  41.64738  20.96737  76.89422  19.49009
       2  59.25422  19.74072          7.00152  -2.400000  76.89422  19.49009  41.64738  20.96737  41.61436  19.99136  76.86119  18.51408
       2  59.22145  18.76472          7.03177  -2.400000  76.86119  18.51408  41.61436  19.99136  41.58183  19.01535  76.82866  17.53807
       2  59.18917  17.78871          7.06201  -2.400000  76.82866  17.53807  41.58183  19.01535  41.54980  18.03934  76.79664  16.56206
       2  59.15739  16.81270          7.09225  -2.400000  76.79664  16.56206  41.54980  18.03934  41.51828  17.06333  76.76511  15.58605
       2  59.12612  15.83669          7.12249  -2.400000  76.76511  15.58605  41.51828  17.06333  41.48725  16.08732  76.73408  14.61004
       2  59.09534  14.86068          7.15273  -2.400000  76.73408  14.61004  41.48725  16.08732  41.45672  15.11132  76.70355  13.63404
       2  59.06505  13.88467          7.18298  -2.400000  76.70355  13.63404  41.45672  15.11132  41.42668  14.13531  76.67352  12.65803
       2  59.03527  12.90866          7.21322  -2.400000  76.67352  12.65803  41.42668  14.13531  41.39715  13.15930  76.64398  11.68202
       2  59.00599  11.93265          7.24346  -2.400000  76.64398  11.68202  41.39715  13.15930  41.36812  12.18329  76.61495  10.70601
       2  58.97720  10.95664          7.27370  -2.400000  76.61495  10.70601  41.36812  12.18329  41.33958  11.20728  76.58642   9.73000
       2  58.94892   9.98063          7.30394  -2.400000  76.58642   9.73000  41.33958  11.20728  41.31155  10.23127  76.55838   8.75399
       2  58.92113   9.00463          7.33419  -2.400000  76.55838   8.75399  41.31155  10.23127  41.28401   9.25526  76.53084   7.77798
       2  58.89384   8.02862          7.36443  -2.400000  76.53084   7.77798  41.28401   9.25526  41.25697   8.27925  76.50380   6.80197
       2  58.86706   7.05261          7.39467  -2.400000  76.50380   6.80197  41.25697   8.27925  41.23043   7.30324  76.47727   5.82596
       2  58.84077   6.07660          7.42491  -2.400000  76.47727   5.82596  41.23043   7.30324  41.20439   6.32723  76.45122   4.84995
       2  58.81498   5.10059          7.45515  -2.400000  76.45122   4.84995  41.20439   6.32723  41.17885   5.35123  76.42568   3.87395
       2  58.78968   4.12458          7.48540  -2.400000  76.42568   3.87395  41.17885   5.35123  41.15381   4.37522  76.40064   2.89794
       2  58.76489   3.14857          7.51564  -2.400000  76.40064   2.89794  41.15381   4.37522  41.12926   3.39921  76.37610   1.92193
       2  58.74060   2.17256          7.54588  -2.400000  76.37610   1.92193  41.12926   3.39921  41.10522   2.42320  76.35205   0.94592
       2  58.71680   1.19655          7.57612  -2.400000  76.35205   0.94592  41.10522   2.42320  41.08167   1.44719  76.32851  -0.03009
       2  58.69350   0.22054          7.60636  -2.400000  76.32851  -0.03009  41.08167   1.44719  41.05863   0.47118  76.30546  -1.00610
       2  58.67071  -0.75546          7.63661  -2.400000  76.30546  -1.00610  41.05863   0.47118  41.03608  -0.50483  76.28291  -1.98211
       3  64.23857 127.03808          7.33419  -2.400000  81.89172 126.54345  46.64489 128.02073  46.58575 127.53272  81.83258 126.05544
       3  64.18008 126.55008          7.36443  -2.400000  81.83258 126.05544  46.58575 127.53272  46.52792 127.04472  81.77475 125.56744
       3  64.12291 126.06208          7.39467  -2.400000  81.77475 125.56744  46.52792 127.04472  46.47139 126.55672  81.71823 125.07944
       3  64.06704 125.57407          7.42491  -2.400000  81.71823 125.07944  46.47139 126.55672  46.41618 126.06871  81.66301 124.59143
       3  64.01248 125.08607          7.45515  -2.400000  81.66301 124.59143  46.41618 126.06871  46.36228 125.58071  81.60911 124.10343
       3  63.95923 124.59807          7.48540  -2.400000  81.60911 124.10343  46.36228 125.58071  46.30968 125.09271  81.55652 123.61543
       3  63.90729 124.11006          7.51564  -2.400000  81.55652 123.61543  46.30968 125.09271  46.25840 124.60470  81.50523 123.12742
       3  63.85666 123.62206          7.54588  -2.400000  81.50523 123.12742  46.25840 124.60470  46.20842 124.11670  81.45526 122.63942
       3  63.80734 123.13406          7.57612  -2.400000  81.45526 122.63942  46.20842 124.11670  46.15975 123.62870  81.40659 122.15142
       3  63.75933 122.64605          7.60636  -2.400000  81.40659 122.15142  46.15975 123.62870  46.11240 123.14069  81.35923 121.66341
       3  63.71262 122.15805          7.63661  -2.400000  81.35923 121.66341  46.11240 123.14069  46.06635 122.65269  81.31318 121.17541
       3  63.66723 121.67005          7.66685  -2.400000  81.31318 121.17541  46.06635 122.65269  46.02161 122.16469  81.26844 120.68741
       3  63.62314 121.18204          7.69709  -2.400000  81.26844 120.68741  46.02161 122.16469  45.97818 121.67668  81.22501 120.19940
       3  63.58037 120.69404          7.72733  -2.400000  81.22501 120.19940  45.97818 121.67668  45.93605 121.18868  81.18289 119.71140
       3  63.53890 120.20604          7.75757  -2.400000  81.18289 119.71140  45.93605 121.18868  45.89524 120.70068  81.14207 119.22340
       3  63.49874 119.71803          7.78782  -2.400000  81.14207 119.22340  45.89524 120.70068  45.85574 120.21267  81.10257 118.73539
       3  63.45989 119.23003          7.81806  -2.400000  81.10257 118.73539  45.85574 120.21267  45.81754 119.72467  81.06437 118.24739
       3  63.42235 118.74203          7.84830  -2.400000  81.06437 118.24739  45.81754 119.72467  45.78065 119.23667  81.02749 117.75939
       3  63.38612 118.25402          7.87854  -2.400000  81.02749 117.75939  45.78065 119.23667  45.74508 118.74866  80.99191 117.27138
       3  63.35120 117.76602          7.90878  -2.400000  80.99191 117.27138  45.74508 118.74866  45.71081 118.26066  80.95764 116.78338
       3  63.31758 117.27802          7.93903  -2.400000  80.95764 116.78338  45.71081 118.26066  45.67785 117.77266  80.92468 116.29538
       3  63.28528 116.79001          7.96927  -2.400000  80.92468 116.29538  45.67785 117.77266  45.64620 117.28465  80.89303 115.80737
       3  63.25428 116.30201          7.99951  -2.400000  80.89303 115.80737  45.64620 117.28465  45.61586 116.79665  80.86269 115.31937
       3  63.22460 115.81401          8.02975  -2.400000  80.86269 115.31937  45.61586 116.79665  45.58683 116.30865  80.83366 114.83137
       3  63.19622 115.32600          8.05999  -2.400000  80.83366 114.83137  45.58683 116.30865  45.55910 115.82064  80.80594 114.34336
       3  63.16915 114.83800          8.09024  -2.400000  80.80594 114.34336  45.55910 115.82064  45.53269 115.33264  80.77952 113.85536
       3  63.14339 114.35000          8.12048  -2.400000  80.77952 113.85536  45.53269 115.33264  45.50759 114.84464  80.75442 113.36736
       3  63.11894 113.86199          8.15072  -2.400000  80.75442 113.36736  45.50759 114.84464  45.48379 114.35663  80.73062 112.87935
       3  63.09580 113.37399          8.18096  -2.400000  80.73062 112.87935  45.48379 114.35663  45.46130 113.86863  80.70814 112.39135
       3  63.07397 112.88599          8.21120  -2.400000  80.70814 112.39135  45.46130 113.86863  45.44013 113.38062  80.68696 111.90334
       3  63.05344 112.39798          8.24145  -2.400000  80.68696 111.90334  45.44013 113.38062  45.42026 112.89262  80.66709 111.41534
       3  63.03423 111.90998          8.27169  -2.400000  80.66709 111.41534  45.42026 112.89262  45.40170 112.40462  80.64853 110.92734
       3  63.01632 111.42198          8.30193  -2.400000  80.64853 110.92734  45.40170 112.40462  45.38445 111.91661  80.63128 110.43933
       3  62.99973 110.93397          8.33217  -2.400000  80.63128 110.43933  45.38445 111.91661  45.36850 111.42861  80.61534 109.95133
       3  62.98444 110.44597          8.36241  -2.400000  80.61534 109.95133  45.36850 111.42861  45.35387 110.94061  80.60070 109.46333
       3  62.97046 109.95797          8.39266  -2.400000  80.60070 109.46333  45.35387 110.94061  45.34055 110.45260  80.58738 108.97532
       3  62.95779 109.46996          8.42290  -2.400000  80.58738 108.97532  45.34055 110.45260  45.32853 109.96460  80.57537 108.48732
       3  62.94643 108.98196          8.45314  -2.400000  80.57537 108.48732  45.32853 109.96460  45.31783 109.47660  80.56466 107.99932
       3  62.93638 108.49396          8.48338  -2.400000  80.56466 107.99932  45.31783 109.47660  45.30843 108.98859  80.55526 107.51131
       3  62.92764 108.00595          8.51362  -2.400000  80.55526 107.51131  45.30843 108.98859  45.30034 108.50059  80.54718 107.02331
       3  62.92021 107.51795          8.54387  -2.400000  80.54718 107.02331  45.30034 108.50059  45.29357 108.01259  80.54040 106.53531
       3  62.91408 107.02995          8.57411  -2.400000  80.54040 106.53531  45.29357 108.01259  45.28810 107.52458  80.53493 106.04730
       3  62.90927 106.54194          8.60435  -2.400000  80.53493 106.04730  45.28810 107.52458  45.28394 107.03658  80.53077 105.55930
       3  62.90576 106.05394          8.63459  -2.400000  80.53077 105.55930  45.28394 107.03658  45.28108 106.54858  80.52792 105.07130
       3  62.90357 105.56594          8.66483  -2.400000  80.52792 105.07130  45.28108 106.54858  45.27954 106.06057  80.52638 104.58329
       1  21.16240 126.27801          7.48540  -1.700000  38.81356 126.24176   3.55131 127.28832   3.51123 126.31426  38.77348 125.26770
       1  21.12231 125.30395          7.54588  -1.700000  38.77348 125.26770   3.51123 126.31426   3.47113 125.34019  38.73338 124.29364
       1  21.08219 124.32988          7.60636  -1.700000  38.73338 124.29364   3.47113 125.34019   3.43100 124.36613  38.69325 123.31957
       1  21.04206 123.35582          7.66685  -1.700000  38.69325 123.31957   3.43100 124.36613   3.39085 123.39207  38.65311 122.34551
       1  21.00190 122.38176          7.72733  -1.700000  38.65311 122.34551   3.39085 123.39207   3.35068 122.41801  38.61293 121.37145
       1  20.96172 121.40770          7.78781  -1.700000  38.61293 121.37145   3.35068 122.41801   3.31049 121.44395  38.57274 120.39739
       1  20.92151 120.43364          7.84830  -1.700000  38.57274 120.39739   3.31049 121.44395   3.27027 120.46988  38.53253 119.42332
       1  20.88128 119.45957          7.90878  -1.700000  38.53253 119.42332   3.27027 120.46988   3.23004 119.49582  38.49229 118.44926
       1  20.84103 118.48551          7.96926  -1.700000  38.49229 118.44926   3.23004 119.49582   3.18977 118.52176  38.45202 117.47520
       1  20.80076 117.51145          8.02975  -1.700000  38.45202 117.47520   3.18977 118.52176   3.14949 117.54770  38.41174 116.50114
       1  20.76046 116.53739          8.09023  -1.700000  38.41174 116.50114   3.14949 117.54770   3.10918 116.57364  38.37143 115.52708
       1  20.72014 115.56332          8.15072  -1.700000  38.37143 115.52708   3.10918 116.57364   3.06885 115.59957  38.33110 114.55301
       1  20.67980 114.58926          8.21120  -1.700000  38.33110 114.55301   3.06885 115.59957   3.02850 114.62551  38.29075 113.57895
       1  20.63944 113.61520          8.27168  -1.700000  38.29075 113.57895   3.02850 114.62551   2.98812 113.65145  38.25037 112.60489
       1  20.59905 112.64114          8.33217  -1.700000  38.25037 112.60489   2.98812 113.65145   2.94772 112.67739  38.20997 111.63083
       1  20.55864 111.66708          8.39265  -1.700000  38.20997 111.63083   2.94772 112.67739   2.90730 111.70332  38.16955 110.65677
       1  20.51821 110.69301          8.45313  -1.700000  38.16955 110.65677   2.90730 111.70332   2.86686 110.72926  38.12911 109.68270
       1  20.47775 109.71895          8.51362  -1.700000  38.12911 109.68270   2.86686 110.72926   2.82639 109.75520  38.08864 108.70864
       1  20.43727 108.74489          8.57410  -1.700000  38.08864 108.70864   2.82639 109.75520   2.78590 108.78114  38.04815 107.73458
       1  20.39677 107.77083          8.63458  -1.700000  38.04815 107.73458   2.78590 108.78114   2.74539 107.80708  38.00764 106.76052
       1  20.35625 106.79677          8.69507  -1.700000  38.00764 106.76052   2.74539 107.80708   2.70485 106.83301  37.96710 105.78645
       1  20.31570 105.82270          8.75555  -1.700000  37.96710 105.78645   2.70485 106.83301   2.66429 105.85895  37.92654 104.81239
       1  20.27513 104.84864          8.81604  -1.700000  37.92654 104.81239   2.66429 105.85895   2.62371 104.88489  37.88596 103.83833
       1  20.23454 103.87458          8.87652  -1.700000  37.88596 103.83833   2.62371 104.88489   2.58311 103.91083  37.84536 102.86427
       1  20.19392 102.90052          8.93700  -1.700000  37.84536 102.86427   2.58311 103.91083   2.54248 102.93677  37.80473 101.89021
       1  20.15328 101.92645          8.99749  -1.700000  37.80473 101.89021   2.54248 102.93677   2.50183 101.96270  37.76408 100.91614
       1  20.11262 100.95239          9.05797  -1.700000  37.76408 100.91614   2.50183 101.96270   2.46116 100.98864  37.72341  99.94208
       1  20.07194  99.97833          9.11845  -1.700000  37.72341  99.94208   2.46116 100.98864   2.42046 100.01458  37.68271  98.96802
       1  20.03123  99.00427          9.17894  -1.700000  37.68271  98.96802   2.42046 100.01458   2.37974  99.04052  37.64199  97.99396
       1  19.99050  98.03021          9.23942  -1.700000  37.64199  97.99396   2.37974  99.04052   2.33900  98.06645  37.60125  97.01990
       1  19.94975  97.05614          9.29990  -1.700000  37.60125  97.01990   2.33900  98.06645   2.29824  97.09239  37.56049  96.04583
       1  19.90897  96.08208          9.36039  -1.700000  37.56049  96.04583   2.29824  97.09239   2.25745  96.11833  37.51970  95.07177
       1  19.86817  95.10802          9.42087  -1.700000  37.51970  95.07177   2.25745  96.11833   2.21664  95.14427  37.47889  94.09771
       1  19.82735  94.13396          9.48136  -1.700000  37.47889  94.09771   2.21664  95.14427   2.17581  94.17021  37.43806  93.12365
       1  19.78651  93.15990          9.54184  -1.700000  37.43806  93.12365   2.17581  94.17021   2.13495  93.19614  37.39720  92.14958
       1  19.74564  92.18583          9.60232  -1.700000  37.39720  92.14958   2.13495  93.19614   2.09407  92.22208  37.35632  91.17552
       1  19.70475  91.21177          9.66281  -1.700000  37.35632  91.17552   2.09407  92.22208   2.05317  91.24802  37.31542  90.20146
       1  19.66384  90.23771          9.72329  -1.700000  37.31542  90.20146   2.05317  91.24802   2.01225  90.27396  37.27450  89.22740
       1  19.62290  89.26365          9.78377  -1.700000  37.27450  89.22740   2.01225  90.27396   1.97130  89.29990  37.23355  88.25334
       1  19.58194  88.28958          9.84426  -1.700000  37.23355  88.25334   1.97130  89.29990   1.93033  88.32583  37.19258  87.27927
       1  19.54096  87.31552          9.90474  -1.700000  37.19258  87.27927   1.93033  88.32583   1.88934  87.35177  37.15159  86.30521
       1  19.49996  86.34146          9.96522  -1.700000  37.15159  86.30521   1.88934  87.35177   1.84832  86.37771  37.11057  85.33115
       1  19.45893  85.36740         10.02571  -1.700000  37.11057  85.33115   1.84832  86.37771   1.80728  85.40365  37.06953  84.35709
       1  19.41788  84.39334         10.08619  -1.700000  37.06953  84.35709   1.80728  85.40365   1.76622  84.42958  37.02847  83.38303
       1  19.37681  83.41927         10.14668  -1.700000  37.02847  83.38303   1.76622  84.42958   1.72514  83.45552  36.98739  82.40896
       1  19.33571  82.44521         10.20716  -1.700000  36.98739  82.40896   1.72514  83.45552   1.68403  82.48146  36.94628  81.43490
       1  19.29459  81.47115         10.26764  -1.700000  36.94628  81.43490   1.68403  82.48146   1.64290  81.50740  36.90515  80.46084
       1  19.25345  80.49709         10.32813  -1.700000  36.90515  80.46084   1.64290  81.50740   1.60175  80.53334  36.86400  79.48678
       1  19.21229  79.52303         10.38861  -1.700000  36.86400  79.48678   1.60175  80.53334   1.56057  79.55927  36.82282  78.51271
       1  19.17110  78.54896         10.44909  -1.700000  36.82282  78.51271   1.56057  79.55927   1.51937  78.58521  36.78162  77.53865
       1  19.12989  77.57490         10.50958  -1.700000  36.78162  77.53865   1.51937  78.58521   1.47815  77.61115  36.74040  76.56459
       1  19.08866  76.60084         10.57006  -1.700000  36.74040  76.56459   1.47815  77.61115   1.43691  76.63709  36.69916  75.59053
       1  19.04740  75.62678         10.63054  -1.700000  36.69916  75.59053   1.43691  76.63709   1.39564  75.66303  36.65789  74.61647
       1  19.00613  74.65271         10.69103  -1.700000  36.65789  74.61647   1.39564  75.66303   1.35435  74.68896  36.61660  73.64240
       1  18.96482  73.67865         10.75151  -1.700000  36.61660  73.64240   1.35435  74.68896   1.31304  73.71490  36.57529  72.66834
       1  18.92350  72.70459         10.81200  -1.700000  36.57529  72.66834   1.31304  73.71490   1.27170  72.74084  36.53395  71.69428
       1  18.88215  71.73053         10.87248  -1.700000  36.53395  71.69428   1.27170  72.74084   1.23035  71.76678  36.49260  70.72022
       1  18.84078  70.75647         10.93296  -1.700000  36.49260  70.72022   1.23035  71.76678   1.18897  70.79271  36.45122  69.74616
       1  18.79939  69.78240         10.99345  -1.700000  36.45122  69.74616   1.18897  70.79271   1.14756  69.81865  36.40981  68.77209
       1  18.75798  68.80834         11.05393  -1.700000  36.40981  68.77209   1.14756  69.81865   1.10613  68.84459  36.36839  67.79803
       1  18.71654  67.83428         11.11441  -1.700000  36.36839  67.79803   1.10613  68.84459   1.06469  67.87053  36.32694  66.82397
       1  18.67508  66.86022         11.17490  -1.700000  36.32694  66.82397   1.06469  67.87053   1.02321  66.89647  36.28546  65.84991
       1  18.63359  65.88616         11.23538  -1.700000  36.28546  65.84991   1.02321  66.89647   0.98172  65.92240  36.24397  64.87584
       1  18.59209  64.91209         11.29586  -1.700000  36.24397  64.87584   0.98172  65.92240   0.94020  64.94834  36.20245  63.90178
       1  18.55056  63.93803         11.35635  -1.700000  36.20245  63.90178   0.94020  64.94834   0.89866  63.97428  36.16091  62.92772
       1  18.50900  62.96397         11.41683  -1.700000  36.16091  62.92772   0.89866  63.97428   0.85709  63.00022  36.11935  61.95366
       1  18.46743  61.98991         11.47732  -1.700000  36.11935  61.95366   0.85709  63.00022   0.81551  62.02616  36.07776  60.97960
       1  18.42583  61.01584         11.53780  -1.700000  36.07776  60.97960   0.81551  62.02616   0.77390  61.05209  36.03615  60.00553
       1  18.38421  60.04178         11.59828  -1.700000  36.03615  60.00553   0.77390  61.05209   0.73227  60.07803  35.99452  59.03147
       1  18.34257  59.06772         11.65877  -1.700000  35.99452  59.03147   0.73227  60.07803   0.69061  59.10397  35.95286  58.05741
       1  18.30090  58.09366         11.71925  -1.700000  35.95286  58.05741   0.69061  59.10397   0.64893  58.12991  35.91118  57.08335
       1  18.25921  57.11960         11.77973  -1.700000  35.91118  57.08335   0.64893  58.12991   0.60723  57.15584  35.86948  56.10929
       1  18.21750  56.14553         11.84022  -1.700000  35.86948  56.10929   0.60723  57.15584   0.56551  56.18178  35.82776  55.13522
       1  18.17576  55.17147         11.90070  -1.700000  35.82776  55.13522   0.56551  56.18178   0.52376  55.20772  35.78601  54.16116
       1  18.13401  54.19741         11.96118  -1.700000  35.78601  54.16116   0.52376  55.20772   0.48199  54.23366  35.74424  53.18710
       1  18.09223  53.22335         12.02167  -1.700000  35.74424  53.18710   0.48199  54.23366   0.44020  53.25960  35.70245  52.21304
       1  18.05042  52.24929         12.08215  -1.700000  35.70245  52.21304   0.44020  53.25960   0.39839  52.28553  35.66064  51.23898
       1  18.00860  51.27522         12.14264  -1.700000  35.66064  51.23898   0.39839  52.28553   0.35655  51.31147  35.61880  50.26491
       1  17.96675  50.30116         12.20312  -1.700000  35.61880  50.26491   0.35655  51.31147   0.31469  50.33741  35.57694  49.29085
       1  17.92487  49.32710         12.26360  -1.700000  35.57694  49.29085   0.31469  50.33741   0.27280  49.36335  35.53506  48.31679
       1  17.88298  48.35304         12.32409  -1.700000  35.53506  48.31679   0.27280  49.36335   0.23090  48.38929  35.49315  47.34273
       1  17.84106  47.37898         12.38457  -1.700000  35.49315  47.34273   0.23090  48.38929   0.18897  47.41522  35.45122  46.36866
       1  17.79912  46.40491         12.44505  -1.700000  35.45122  46.36866   0.18897  47.41522   0.14702  46.44116  35.40927  45.39460
       1  17.75716  45.43085         12.50554  -1.700000  35.40927  45.39460   0.14702  46.44116   0.10504  45.46710  35.36729  44.42054
       1  17.71517  44.45679         12.56602  -1.700000  35.36729  44.42054   0.10504  45.46710   0.06304  44.49304  35.32530  43.44648
       1  17.67316  43.48273         12.62650  -1.700000  35.32530  43.44648   0.06304  44.49304   0.02102  43.51898  35.28327  42.47242
       1  17.63113  42.50866         12.68699  -1.700000  35.28327  42.47242   0.02102  43.51898  -0.02102  42.54491  35.24123  41.49835
       1  17.58908  41.53460         12.74747  -1.700000  35.24123  41.49835  -0.02102  42.54491  -0.06309  41.57085  35.19917  40.52429
       1  17.54700  40.56054         12.80795  -1.700000  35.19917  40.52429  -0.06309  41.57085  -0.10517  40.59679  35.15708  39.55023
       1  17.50490  39.58648         12.86844  -1.700000  35.15708  39.55023  -0.10517  40.59679  -0.14729  39.62273  35.11496  38.57617
       1  17.46277  38.61242         12.92892  -1.700000  35.11496  38.57617  -0.14729  39.62273  -0.18942  38.64866  35.07283  37.60211
       1  17.42063  37.63835         12.98941  -1.700000  35.07283  37.60211  -0.18942  38.64866  -0.23158  37.67460  35.03067  36.62804
       1  17.37846  36.66429         13.04989  -1.700000  35.03067  36.62804  -0.23158  37.67460  -0.27376  36.70054  34.98849  35.65398
       1  17.33627  35.69023         13.11037  -1.700000  34.98849  35.65398  -0.27376  36.70054  -0.31596  35.72648  34.94629  34.67992
       1  17.29405  34.71617         13.17086  -1.700000  34.94629  34.67992  -0.31596  35.72648  -0.35819  34.75242  34.90406  33.70586
       1  17.25182  33.74211         13.23134  -1.700000  34.90406  33.70586  -0.35819  34.75242  -0.40044  33.77835  34.86181  32.73179
       1  17.20955  32.76804         13.29182  -1.700000  34.86181  32.73179  -0.40044  33.77835  -0.44271  32.80429  34.81954  31.75773
       1  17.16727  31.79398         13.35231  -1.700000  34.81954  31.75773  -0.44271  32.80429  -0.48500  31.83023  34.77725  30.78367
       1  17.12497  30.81992         13.41279  -1.700000  34.77725  30.78367  -0.48500  31.83023  -0.52732  30.85617  34.73493  29.80961
       1  17.08264  29.84586         13.47327  -1.700000  34.73493  29.80961  -0.52732  30.85617  -0.56966  29.88211  34.69259  28.83555
       1  17.04029  28.87179         13.53376  -1.700000  34.69259  28.83555  -0.56966  29.88211  -0.61202  28.90804  34.65023  27.86148
       1  16.99791  27.89773         13.59424  -1.700000  34.65023  27.86148  -0.61202  28.90804  -0.65441  27.93398  34.60784  26.88742
       1  16.95551  26.92367         13.65473  -1.700000  34.60784  26.88742  -0.65441  27.93398  -0.69682  26.95992  34.56543  25.91336
       1  16.91309  25.94961         13.71521  -1.700000  34.56543  25.91336  -0.69682  26.95992  -0.73925  25.98586  34.52300  24.93930
       1  16.87065  24.97555         13.77569  -1.700000  34.52300  24.93930  -0.73925  25.98586  -0.78171  25.01179  34.48055  23.96524
       1  16.82818  24.00148         13.83618  -1.700000  34.48055  23.96524  -0.78171  25.01179  -0.82418  24.03773  34.43807  22.99117
       1  16.78570  23.02742         13.89666  -1.700000  34.43807  22.99117  -0.82418  24.03773  -0.86668  23.06367  34.39557  22.01711
       1  16.74318  22.05336         13.95714  -1.700000  34.39557  22.01711  -0.86668  23.06367  -0.90921  22.08961  34.35304  21.04305
       1  16.70065  21.07930         14.01763  -1.700000  34.35304  21.04305  -0.90921  22.08961  -0.95175  21.11555  34.31050  20.06899
       1  16.65809  20.10524         14.07811  -1.700000  34.31050  20.06899  -0.95175  21.11555  -0.99432  20.14148  34.26793  19.09492
       1  16.61551  19.13117         14.13859  -1.700000  34.26793  19.09492  -0.99432  20.14148  -1.03691  19.16742  34.22534  18.12086
       1  16.57291  18.15711         14.19908  -1.700000  34.22534  18.12086  -1.03691  19.16742  -1.07953  18.19336  34.18272  17.14680
       1  16.53028  17.18305         14.25956  -1.700000  34.18272  17.14680  -1.07953  18.19336  -1.12216  17.21930  34.14009  16.17274
       1  16.48763  16.20899         14.32005  -1.700000  34.14009  16.17274  -1.12216  17.21930  -1.16482  16.24524  34.09743  15.19868
       1  16.44496  15.23492         14.38053  -1.700000  34.09743  15.19868  -1.16482  16.24524  -1.20751  15.27117  34.05474  14.22461
       1  16.40227  14.26086         14.44101  -1.700000  34.05474  14.22461  -1.20751  15.27117  -1.25021  14.29711  34.01204  13.25055
       1  16.35955  13.28680         14.50150  -1.700000  34.01204  13.25055  -1.25021  14.29711  -1.29294  13.32305  33.96931  12.27649
       1  16.31681  12.31274         14.56198  -1.700000  33.96931  12.27649  -1.29294  13.32305  -1.33569  12.34899  33.92656  11.30243
       1  16.27405  11.33868         14.62246  -1.700000  33.92656  11.30243  -1.33569  12.34899  -1.37847  11.37492  33.88378  10.32837
       1  16.23126  10.36461         14.68295  -1.700000  33.88378  10.32837  -1.37847  11.37492  -1.42126  10.40086  33.84099   9.35430
       1  16.18845   9.39055         14.74343  -1.700000  33.84099   9.35430  -1.42126  10.40086  -1.46408   9.42680  33.79817   8.38024
       1  16.14562   8.41649         14.80391  -1.700000  33.79817   8.38024  -1.46408   9.42680  -1.50693   8.45274  33.75532   7.40618
       1  16.10277   7.44243         14.86440  -1.700000  33.75532   7.40618  -1.50693   8.45274  -1.54979   7.47868  33.71246   6.43212
       1  16.05989   6.46837         14.92488  -1.700000  33.71246   6.43212  -1.54979   7.47868  -1.59268   6.50461  33.66957   5.45805
       1  16.01699   5.49430         14.98537  -1.700000  33.66957   5.45805  -1.59268   6.50461  -1.63559   5.53055  33.62666   4.48399
       1  15.97407   4.52024         15.04585  -1.700000  33.62666   4.48399  -1.63559   5.53055  -1.67853   4.55649  33.58372   3.50993
       1  15.93112   3.54618         15.10633  -1.700000  33.58372   3.50993  -1.67853   4.55649  -1.72148   3.58243  33.54077   2.53587
       1  15.88816   2.57212         15.16682  -1.700000  33.54077   2.53587  -1.72148   3.58243  -1.76446   2.60837  33.49779   1.56181
       1  15.84516   1.59805         15.22730  -1.700000  33.49779   1.56181  -1.76446   2.60837  -1.80747   1.63430  33.45479   0.58774
       1  15.80215   0.62399         15.28778  -1.700000  33.45479   0.58774  -1.80747   1.63430  -1.85049   0.66024  33.41176  -0.38632
       1  15.75911  -0.35007         15.34827  -1.700000  33.41176  -0.38632  -1.85049   0.66024  -1.89354  -0.31382  33.36871  -1.36038
